LabVIEW Measurement	
Writer_Version	2
Reader_Version	2
Separator	Tab
Decimal_Separator	.
Multi_Headings	No
X_Columns	One
Time_Pref	Absolute
Operator	Mark
Date	2019/07/19
Time	14:13:22.2810001373291015625
***End_of_Header***	
	
Channels	4				
Samples	1	1	1	1	
Date	2019/07/19	2019/07/19	2019/07/19	2019/07/19	
Time	14:13:22.2810001373291015625	14:13:22.2920002937316894531	14:13:22.2960004806518554688	14:13:22.3010001182556152344	
X_Dimension	Time	Time	Time	Time	
X0	0.0000000000000000E+0	0.0000000000000000E+0	0.0000000000000000E+0	0.0000000000000000E+0	
Delta_X	1.000000	1.000000	1.000000	1.000000	
***End_of_Header***					
X_Value	FieldPoint\FP @ COM1\cFP-AI-110 @1\Channel 0 (Scaled)	FieldPoint\FP @ COM1\cFP-AI-110 @1\Channel 1 (Scaled)	FieldPoint\FP @ COM1\cFP-AI-110 @1\Channel 2 (Scaled)	FieldPoint\FP @ COM1\cFP-AI-110 @1\Channel 3 (Scaled)	Comment
0.000000	0.153298	0.185037	19.814510	0.984219
3.006000	0.153298	0.185037	19.814194	1.035953
5.999000	0.152981	0.185037	19.814510	1.035953
9.011999	0.153298	0.185037	19.814194	1.043571
12.024000	0.152981	0.185037	19.814194	1.074040
15.012000	0.153298	0.185037	19.813875	1.061662
18.004000	0.153298	0.185037	19.813875	1.059440
21.084000	0.153298	0.185037	19.814194	1.036588
24.113000	0.153298	0.185037	19.813875	1.036271
27.001000	0.153298	0.185037	19.813875	1.060709
30.010000	0.153298	0.185037	19.814194	1.060075
33.014000	0.152981	0.184402	19.813875	1.058805
36.003000	0.152981	0.184402	19.813242	1.031192
39.015000	0.152981	0.185037	19.813875	0.977237
42.007000	0.152981	0.185037	19.813875	1.045475
45.015000	0.153298	0.185037	19.813875	1.085783
48.015000	0.152981	0.185037	19.813875	1.094670
51.003000	0.152981	0.185037	19.813242	1.106413
54.016000	0.152981	0.184402	19.813242	1.061662
57.092000	0.152981	0.185037	19.813242	1.062296
60.006999	0.153298	0.185037	19.813242	1.072770
63.015999	0.152981	0.185037	19.813242	1.050553
66.003000	0.152981	0.185037	19.813242	1.062296
69.099000	0.152981	0.184402	19.812923	1.074357
72.003000	0.152981	0.185037	19.813242	1.106096
75.080000	0.152981	0.185037	19.812923	1.082292
78.004000	0.152981	0.184402	19.812923	1.110222
81.062000	0.152981	0.184402	19.812923	1.072135
84.004000	0.152981	0.184402	19.812923	1.076579
87.004000	0.152981	0.185037	19.812923	1.076262
90.020000	0.153298	0.184402	19.812923	1.074357
93.013000	0.152981	0.184402	19.812607	1.074357
96.096000	0.152981	0.185037	19.812923	1.074357
99.009000	0.152981	0.184402	19.812607	1.092448
102.004000	0.152981	0.184402	19.812923	1.074675
105.096000	0.152981	0.184402	19.812607	1.074357
108.009000	0.152981	0.185037	19.812607	1.094035
111.027999	0.152981	0.184402	19.812607	1.074357
114.013000	0.152981	0.184402	19.812923	1.089909
117.005000	0.152981	0.185037	19.812607	1.074357
120.005000	0.152981	0.184402	19.812607	1.082292
123.026000	0.152981	0.184402	19.812288	1.083561
126.009000	0.152981	0.184402	19.812288	1.087687
129.013000	0.152981	0.185037	19.812288	0.692540
132.009000	0.152981	0.184402	19.812288	0.747765
135.013000	0.152981	0.185037	19.812288	1.110539
138.015000	0.152981	0.184402	19.812288	1.074357
141.010000	0.152981	0.184402	19.812288	1.086735
144.010000	0.152981	0.184402	19.811972	1.074992
147.006000	0.152981	0.185037	19.812288	1.099748
150.093000	0.152981	0.184402	19.812288	1.089909
153.014000	0.152981	0.184402	19.811972	1.112761
156.015000	0.152981	0.184402	19.812288	1.109587
159.010000	0.152981	0.184402	19.811972	1.100700
162.020000	0.152981	0.184402	19.811972	1.088957
165.015999	0.152346	0.184402	19.811972	1.075944
168.007000	0.152981	0.185037	19.811972	1.122600
171.007000	0.152981	0.185037	19.811972	1.100383
174.012000	0.152981	0.185037	19.811972	1.110539
177.012000	0.152346	0.184402	19.811972	1.075627
180.008000	0.152981	0.184402	19.811337	1.133074
183.023000	0.152981	0.184402	19.811337	1.140056
186.027000	0.152981	0.184402	19.811337	1.112761
189.032000	0.152981	0.184402	19.811337	1.092448
192.015999	0.152346	0.184402	19.811337	1.096892
195.086999	0.152346	0.184402	19.811337	1.078483
198.033000	0.152346	0.184402	19.811337	1.101018
201.012000	0.152981	0.184402	19.811337	1.151800
204.024000	0.152346	0.184402	19.811337	1.099748
207.024000	0.152346	0.184402	19.811337	1.111809
210.025000	0.152346	0.184402	19.811337	1.122600
213.011000	0.152346	0.184402	19.811020	1.122283
216.023999	0.152981	0.184402	19.811337	1.131170
219.019000	0.152346	0.184402	19.811020	1.108000
222.011000	0.152346	0.185037	19.811020	1.149261
225.020000	0.152346	0.184402	19.811337	1.127996
228.020000	0.152346	0.184402	19.811020	1.106731
231.076000	0.152346	0.184402	19.811020	1.100066
234.080000	0.152346	0.184402	19.811020	1.127043
237.105000	0.152346	0.184402	19.811020	1.125139
240.124000	0.152346	0.184402	19.811020	1.112444
243.112999	0.152346	0.184402	19.811020	1.114348
246.020999	0.152346	0.184402	19.811020	1.114031
249.025000	0.152346	0.184402	19.811020	1.114031
252.047000	0.152346	0.184402	19.811020	1.112444
255.084000	0.152346	0.184402	19.811020	1.111809
258.105000	0.152981	0.184402	19.810701	1.141961
261.013000	0.152346	0.184402	19.811020	1.112126
264.072000	0.152346	0.184402	19.810701	1.127678
267.072000	0.152346	0.184402	19.810701	1.164178
270.026000	0.152346	0.184402	19.810701	1.132756
273.076000	0.152346	0.184402	19.810701	1.154339
276.039000	0.152346	0.184402	19.810701	1.124822
279.023000	0.152346	0.184402	19.810701	1.159417
282.028000	0.152346	0.184402	19.810701	1.162908
285.015000	0.152346	0.184402	19.810385	1.126091
288.023000	0.152346	0.184402	19.810701	1.123870
291.028000	0.152346	0.184402	19.810701	1.163860
294.034999	0.152346	0.184402	19.810385	1.156561
297.019000	0.152346	0.184402	19.810385	1.164495
300.014000	0.152346	0.184402	19.810701	1.156878
303.069000	0.152346	0.184402	19.810385	1.124822
306.039000	0.152346	0.184402	19.810066	1.170843
309.023000	0.152346	0.184402	19.810385	1.163226
312.024000	0.152346	0.184402	19.810066	1.186712
315.032000	0.152346	0.184402	19.810385	1.165130
318.081000	0.152346	0.184402	19.810066	1.164178
321.084000	0.152346	0.184402	19.810066	1.201630
324.015999	0.152346	0.184402	19.810385	1.164178
327.058000	0.152346	0.184402	19.810066	1.163860
330.025000	0.152346	0.184402	19.810385	1.200678
333.025000	0.152346	0.184402	19.810066	1.201630
336.033000	0.152346	0.184402	19.810066	1.174334
339.021000	0.152029	0.184402	19.810066	1.189252
342.062000	0.152346	0.184402	19.810066	1.222577
345.020999	0.152346	0.184402	19.810066	1.166082
348.020000	0.152346	0.184402	19.810385	1.212421
351.025000	0.152029	0.184402	19.810385	1.196551
354.034000	0.152346	0.184402	19.810385	1.200043
357.018000	0.152029	0.184402	19.810066	1.181952
360.059000	0.152346	0.184402	19.810066	1.165447
363.019000	0.152346	0.184402	19.810066	1.201630
366.031000	0.152346	0.184402	19.810066	1.180047
369.120000	0.152346	0.184402	19.810066	1.201630
372.034000	0.152346	0.184402	19.810066	1.184808
375.026000	0.152029	0.184085	19.810066	1.227021
378.077000	0.152346	0.184402	19.810066	1.188617
381.043000	0.152346	0.184085	19.810066	1.204486
384.030000	0.152346	0.184402	19.810066	1.204803
387.026999	0.152346	0.184402	19.810066	1.207343
390.026000	0.152029	0.184402	19.810066	1.178143
393.027000	0.152029	0.184402	19.809750	1.201630
396.097000	0.152029	0.184402	19.809750	1.202264
399.056000	0.152029	0.184402	19.809750	1.235590
402.023000	0.152029	0.184402	19.809750	1.201630
405.033000	0.152029	0.184402	19.809750	1.167034
408.029000	0.152346	0.184402	19.809114	1.201312
411.039000	0.152029	0.184085	19.809114	1.189569
414.039000	0.152346	0.184402	19.809750	1.238447
417.026000	0.152346	0.184402	19.809750	1.202582
420.059000	0.152346	0.184402	19.809750	1.202264
423.026999	0.152346	0.184402	19.809750	1.181952
426.026999	0.152346	0.184085	19.809114	1.214325
429.040000	0.152029	0.184402	19.809114	1.250507
432.081999	0.152346	0.184402	19.809114	1.202582
435.032000	0.152346	0.184402	19.809114	1.230512
438.117000	0.152346	0.184085	19.809114	1.202264
441.029000	0.152029	0.184402	19.809114	1.213373
444.028000	0.152346	0.184402	19.809750	1.190204
447.037000	0.152029	0.184402	19.809750	1.201630
450.039999	0.152346	0.184402	19.809114	1.202264
453.037000	0.152029	0.184402	19.809114	1.184808
456.033000	0.152029	0.184402	19.809114	1.197186
459.029000	0.152029	0.184402	19.809750	1.205121
462.028000	0.152029	0.184402	19.809114	1.201630
465.028000	0.152029	0.184402	19.809114	1.202264
468.037000	0.152346	0.184402	19.809114	1.212421
471.029000	0.152029	0.184085	19.809114	1.178460
474.089000	0.152029	0.184402	19.809114	1.236225
477.122999	0.152029	0.184085	19.808798	1.201630
480.041000	0.152029	0.184402	19.808798	1.190204
483.029000	0.152029	0.184085	19.809114	1.219403
486.030000	0.152029	0.184402	19.809114	1.202582
489.034000	0.152029	0.184402	19.809114	1.202582
492.034000	0.152029	0.184402	19.809114	1.213690
495.094000	0.152029	0.184085	19.808798	1.205438
498.042000	0.152029	0.184085	19.809114	1.205438
501.043000	0.152029	0.184402	19.808798	1.236225
504.076000	0.152029	0.184402	19.809114	1.251777
507.034000	0.152029	0.184402	19.809114	1.210834
510.035000	0.152029	0.184402	19.808798	1.221308
513.031000	0.152029	0.184402	19.809114	1.205121
516.043000	0.152029	0.184402	19.808798	1.236860
519.038000	0.152029	0.184085	19.808798	1.227338
522.146000	0.152029	0.184402	19.808798	1.202264
525.039000	0.152029	0.184402	19.808798	1.213690
528.056000	0.152029	0.184085	19.808798	1.214643
531.032000	0.152029	0.184402	19.808479	1.227655
534.034999	0.152029	0.184085	19.808798	1.203217
537.040000	0.152029	0.184085	19.808798	1.227338
540.052999	0.152029	0.184085	19.808798	1.228290
543.035000	0.152029	0.184402	19.808798	1.237812
546.046000	0.152029	0.184402	19.808798	1.228608
549.032000	0.152029	0.184402	19.808798	1.217182
552.033000	0.152029	0.184085	19.808479	1.228608
555.109000	0.152029	0.184402	19.808798	1.238447
558.050000	0.152029	0.184402	19.808798	1.239399
561.038000	0.152029	0.184402	19.808798	1.228290
564.038000	0.152029	0.184085	19.808798	1.239399
567.038000	0.152029	0.184085	19.808798	1.239716
570.034000	0.152029	0.184085	19.808798	1.216547
573.038000	0.152029	0.184085	19.808479	1.227338
576.034000	0.152029	0.184402	19.808479	1.233051
579.122000	0.152029	0.184085	19.808479	1.232734
582.048000	0.152029	0.184085	19.808798	1.239399
585.040000	0.152029	0.184085	19.808479	1.225116
588.051000	0.152029	0.184085	19.808479	1.225116
591.035000	0.152029	0.184085	19.808479	1.230194
594.039000	0.152029	0.184085	19.808798	1.249238
597.069000	0.152029	0.184402	19.808479	1.263838
600.050000	0.152029	0.184085	19.808479	1.251777
603.046000	0.152029	0.184402	19.808479	1.241303
606.045000	0.152029	0.184085	19.808163	1.239081
609.107000	0.152029	0.184085	19.808479	1.252729
612.051000	0.152029	0.184085	19.808479	1.239081
615.050000	0.152029	0.184085	19.808479	1.276850
618.051000	0.152029	0.184402	19.808163	1.240668
621.040000	0.152029	0.184402	19.808479	1.290498
624.123000	0.152029	0.184402	19.808163	1.239081
627.047000	0.152029	0.184085	19.808163	1.242255
630.052001	0.152029	0.184085	19.808479	1.254316
633.048000	0.152029	0.184085	19.808163	1.283198
636.102000	0.152029	0.184085	19.808479	1.273994
639.044000	0.152029	0.184085	19.808163	1.254316
642.056000	0.152029	0.184085	19.808163	1.263520
645.049000	0.152029	0.184085	19.808163	1.212103
648.054000	0.151711	0.184085	19.808163	1.279390
651.107000	0.152029	0.184085	19.808163	1.228608
654.065000	0.152029	0.184085	19.807846	1.266694
657.045000	0.152029	0.184085	19.808163	1.254633
660.060999	0.152029	0.184085	19.808163	1.259712
663.048999	0.152029	0.184085	19.808163	1.245746
666.048999	0.152029	0.184085	19.807846	1.265107
669.058000	0.152029	0.184085	19.808163	1.277803
672.046000	0.152029	0.184085	19.807846	1.277803
675.154000	0.152029	0.184085	19.808163	1.277485
678.129000	0.152029	0.184085	19.807846	1.275898
681.041000	0.152029	0.184085	19.808163	1.215595
684.059000	0.152029	0.184085	19.808163	1.241303
687.059000	0.151711	0.184085	19.808163	1.240351
690.088000	0.152029	0.184085	19.808163	1.277803
693.056000	0.151711	0.184085	19.808163	1.289863
696.052000	0.152029	0.184085	19.807846	1.327950
699.048000	0.152029	0.184085	19.808163	1.289863
702.142000	0.151711	0.184085	19.807846	1.313033
705.078001	0.152029	0.184085	19.807846	1.287959
708.064000	0.152029	0.184085	19.807846	1.242255
711.118999	0.151711	0.184085	19.807846	1.248286
714.048999	0.152029	0.184085	19.807211	1.254633
717.115000	0.152029	0.184085	19.807846	1.289229
720.052999	0.151711	0.184402	19.807846	1.277803
723.044000	0.152029	0.184085	19.807846	1.315572
726.045000	0.152029	0.184085	19.807846	1.290816
729.049000	0.151711	0.184085	19.807846	1.240668
732.048000	0.152029	0.184085	19.807846	1.277803
735.060999	0.151711	0.184085	19.807211	1.294942
738.048000	0.151711	0.184085	19.807846	1.297481
741.048999	0.151711	0.184085	19.807846	1.264472
744.061000	0.151711	0.184085	19.807211	1.315572
747.062000	0.152029	0.184085	19.807211	1.270503
750.048000	0.151711	0.184085	19.807211	1.263520
753.051000	0.152029	0.184085	19.807211	1.285737
756.048000	0.151711	0.184085	19.807211	1.286055
759.047000	0.152029	0.184085	19.806892	1.289863
762.051000	0.152029	0.184085	19.807211	1.303194
765.052000	0.152029	0.184085	19.807211	1.328267
768.051000	0.152029	0.184085	19.806892	1.315572
771.059999	0.151711	0.184085	19.806892	1.327950
774.068000	0.151711	0.184085	19.807211	1.315572
777.089000	0.152029	0.184085	19.807211	1.328267
780.101000	0.152029	0.184085	19.807211	1.317476
783.105000	0.151711	0.184085	19.806892	1.328267
786.046999	0.152029	0.184085	19.807211	1.316841
789.063000	0.152029	0.184085	19.806892	1.326680
792.142000	0.151711	0.184085	19.807211	1.328902
795.052000	0.151711	0.184085	19.807211	1.328267
798.048000	0.151711	0.184085	19.807211	1.315889
801.072000	0.151711	0.184085	19.806892	1.316207
804.085000	0.151711	0.184085	19.806892	1.342232
807.064000	0.151711	0.184085	19.806892	1.328267
810.060000	0.151711	0.184085	19.806892	1.315572
813.046999	0.151711	0.184085	19.806892	1.305415
816.051000	0.151711	0.184085	19.806892	1.350802
819.076000	0.151711	0.184085	19.806892	1.350802
822.072000	0.151711	0.184402	19.806892	1.312715
825.047000	0.151711	0.184085	19.806892	1.328267
828.114000	0.151711	0.184085	19.806259	1.328267
831.055000	0.151711	0.184085	19.806892	1.329537
834.088000	0.152029	0.184085	19.806892	1.352071
837.093000	0.151711	0.184085	19.806259	1.324141
840.100999	0.151711	0.184085	19.806259	1.333346
843.059999	0.151711	0.184085	19.806892	1.328267
846.052999	0.151711	0.184085	19.806892	1.346993
849.052999	0.151711	0.184085	19.806892	1.331441
852.054000	0.151711	0.184085	19.806892	1.338741
855.162000	0.151711	0.184085	19.806892	1.342232
858.130000	0.151711	0.184085	19.806892	1.333028
861.064000	0.151711	0.184085	19.806892	1.339693
864.056000	0.152029	0.184085	19.806892	1.340963
867.089000	0.151711	0.184085	19.806892	1.333663
870.056000	0.151711	0.184085	19.806892	1.342867
873.059999	0.151711	0.184085	19.806259	1.333663
876.055000	0.151711	0.184085	19.806892	1.354293
879.073000	0.151711	0.184085	19.806259	1.353976
882.064000	0.151711	0.184085	19.806259	1.341915
885.060000	0.151711	0.184085	19.806259	1.344137
888.065000	0.151711	0.184085	19.806259	1.366989
891.065000	0.151711	0.184085	19.806892	1.328267
894.057000	0.151711	0.184085	19.806259	1.328902
897.059999	0.151711	0.184085	19.806259	1.327950
900.059999	0.151711	0.184085	19.806259	1.328267
903.065000	0.151711	0.184085	19.806259	1.341915
906.054000	0.151711	0.184085	19.806259	1.328267
909.058000	0.151711	0.184085	19.806259	1.328902
912.063000	0.151711	0.184085	19.806892	1.353658
915.058000	0.151711	0.184085	19.806259	1.355245
918.058000	0.151711	0.184085	19.806259	1.352071
921.059000	0.151711	0.184085	19.806259	1.355245
924.059000	0.151711	0.184085	19.806259	1.366036
927.118000	0.151711	0.184085	19.806259	1.366036
930.071000	0.151711	0.183767	19.806259	1.378415
933.113000	0.151711	0.184085	19.806259	1.379049
936.154000	0.151711	0.184085	19.805941	1.353658
939.055000	0.151711	0.184085	19.805941	1.366354
942.059999	0.151711	0.184085	19.806259	1.366354
945.122999	0.151711	0.184085	19.805941	1.346993
948.097000	0.151711	0.184085	19.805941	1.366989
951.061000	0.151711	0.184085	19.806259	1.369845
954.056000	0.151394	0.184085	19.805941	1.355563
957.056000	0.151711	0.184085	19.805941	1.353976
960.114000	0.151711	0.183767	19.805941	1.366989
963.139000	0.151711	0.184085	19.805941	1.366989
966.082000	0.151711	0.184085	19.806259	1.377780
969.072000	0.151711	0.184085	19.805941	1.361276
972.059999	0.151711	0.184085	19.806259	1.389206
975.076000	0.151711	0.184085	19.805941	1.392062
978.059999	0.151394	0.184085	19.805941	1.354293
981.056000	0.151711	0.184085	19.805941	1.351119
984.059999	0.151394	0.184085	19.805941	1.379684
987.060000	0.151711	0.184085	19.805941	1.373654
990.169000	0.151394	0.184085	19.805941	1.358419
993.058000	0.151394	0.184085	19.805941	1.359371
996.070000	0.151711	0.184085	19.805941	1.380001
999.070000	0.151394	0.184085	19.805941	1.367306
1002.111000	0.151711	0.184085	19.805941	1.355880
1005.059000	0.151711	0.184085	19.805941	1.371432
1008.067000	0.151711	0.184085	19.805941	1.373336
1011.067000	0.151394	0.184085	19.805941	1.367306
1014.067000	0.151711	0.184085	19.805941	1.365084
1017.160000	0.151711	0.184085	19.805941	1.367306
1020.065000	0.151711	0.183767	19.805941	1.379684
1023.065000	0.151394	0.184085	19.805941	1.392062
1026.064000	0.151711	0.184085	19.805941	1.367941
1029.107000	0.151711	0.184085	19.805941	1.355563
1032.073000	0.151711	0.184085	19.805941	1.366354
1035.065000	0.151711	0.184085	19.805941	1.391745
1038.069000	0.151711	0.184085	19.805305	1.367623
1041.073000	0.151394	0.184085	19.805941	1.392062
1044.069000	0.151711	0.184085	19.805941	1.405710
1047.069000	0.151711	0.184085	19.805305	1.390158
1050.135000	0.151711	0.184085	19.805305	1.389206
1053.065000	0.151711	0.184085	19.805941	1.367941
1056.074000	0.151711	0.184085	19.805305	1.393649
1059.066000	0.151711	0.184085	19.805305	1.377462
1062.156000	0.151394	0.184085	19.805305	1.388571
1065.074000	0.151394	0.184085	19.805305	1.402219
1068.070000	0.151711	0.184085	19.805941	1.367623
1071.136000	0.151711	0.184085	19.805305	1.356197
1074.077000	0.151394	0.184085	19.805305	1.403171
1077.070000	0.151394	0.184085	19.805305	1.383493
1080.067000	0.151394	0.184085	19.805305	1.387936
1083.071000	0.151394	0.184085	19.805941	1.414279
1086.075000	0.151394	0.184085	19.805305	1.401901
1089.124000	0.151394	0.184085	19.805305	1.405393
1092.084000	0.151711	0.184085	19.805941	1.387936
1095.064000	0.151394	0.183767	19.805941	1.387301
1098.143000	0.151711	0.184085	19.805941	1.381906
1101.072999	0.151394	0.184085	19.805941	1.366989
1104.093000	0.151394	0.184085	19.805305	1.390475
1107.073000	0.151394	0.184085	19.805941	1.406662
1110.077000	0.151394	0.184085	19.805305	1.409201
1113.089000	0.151394	0.184085	19.805305	1.391745
1116.163000	0.151394	0.183767	19.805305	1.422531
1119.077000	0.151394	0.183767	19.805305	1.389206
1122.080000	0.151394	0.183767	19.805305	1.410471
1125.077000	0.151394	0.184085	19.805305	1.392062
1128.066000	0.151394	0.184085	19.805305	1.442209
1131.074000	0.151394	0.183767	19.805305	1.406027
1134.070000	0.151394	0.184085	19.805305	1.391110
1137.078000	0.151394	0.184085	19.805305	1.370162
1140.144000	0.151711	0.184085	19.805305	1.417136
1143.150000	0.151394	0.184085	19.805305	1.393014
1146.070000	0.151394	0.184085	19.805305	1.429514
1149.149000	0.151394	0.183767	19.805305	1.392062
1152.140000	0.151394	0.184085	19.805305	1.393967
1155.070000	0.151394	0.184085	19.805305	1.398093
1158.080000	0.151711	0.184085	19.805305	1.438083
1161.076000	0.151394	0.184085	19.805305	1.403488
1164.084000	0.151394	0.183767	19.805305	1.415866
1167.101000	0.151394	0.184085	19.805305	1.405075
1170.087000	0.151394	0.184085	19.805305	1.402219
1173.117000	0.151394	0.184085	19.805305	1.379684
1176.084000	0.151394	0.184085	19.805305	1.393332
1179.076000	0.151394	0.184085	19.804989	1.379684
1182.135000	0.151394	0.184085	19.804989	1.398093
1185.073000	0.151394	0.184085	19.804989	1.406027
1188.159000	0.151394	0.183767	19.804989	1.399680
1191.073000	0.151394	0.184085	19.804989	1.405393
1194.072000	0.151394	0.183767	19.804989	1.413645
1197.084000	0.151394	0.184085	19.804989	1.405710
1200.122000	0.151394	0.184085	19.804989	1.414279
1203.067999	0.151394	0.184085	19.804989	1.405710
1206.084000	0.151394	0.184085	19.804672	1.405075
1209.081000	0.151394	0.184085	19.804989	1.404123
1212.103000	0.151394	0.183767	19.805305	1.406027
1215.079000	0.151394	0.184085	19.804989	1.405710
1218.149000	0.151394	0.183767	19.804989	1.417453
1221.075000	0.151394	0.184085	19.804989	1.403805
1224.075000	0.151394	0.184085	19.804989	1.381271
1227.075000	0.151077	0.184085	19.804989	1.407297
1230.084000	0.151394	0.184085	19.804989	1.394601
1233.093999	0.151394	0.183767	19.804989	1.404123
1236.079000	0.151394	0.183767	19.804672	1.416501
1239.079000	0.151394	0.183767	19.804989	1.369528
1242.163000	0.151394	0.184085	19.804989	1.405710
1245.090000	0.151394	0.184085	19.804989	1.441892
1248.141000	0.151394	0.183767	19.804989	1.418405
1251.083000	0.151394	0.184085	19.804672	1.404123
1254.072000	0.151394	0.183767	19.804989	1.394284
1257.076000	0.151394	0.184085	19.804672	1.402219
1260.182000	0.151394	0.184085	19.804989	1.443796
1263.077000	0.151394	0.184085	19.804989	1.407932
1266.078000	0.151394	0.184085	19.804672	1.407932
1269.135000	0.151394	0.183767	19.804989	1.415231
1272.078000	0.151394	0.183767	19.804989	1.443796
1275.079000	0.151394	0.183767	19.804672	1.424436
1278.083000	0.151394	0.183767	19.804672	1.438401
1281.079000	0.151394	0.183767	19.804672	1.454270
1284.074000	0.151394	0.184085	19.804989	1.411740
1287.144000	0.151394	0.183767	19.804989	1.443479
1290.153000	0.151394	0.184085	19.804989	1.444431
1293.074000	0.151711	0.184085	19.804672	1.414279
1296.078000	0.151394	0.183767	19.804672	1.392062
1299.082000	0.151394	0.184085	19.804672	1.391745
1302.082000	0.151077	0.183767	19.804672	1.431418
1305.083000	0.151394	0.184085	19.804672	1.411106
1308.086999	0.151394	0.183767	19.804672	1.415549
1311.074000	0.151394	0.184085	19.804672	1.404123
1314.079000	0.151394	0.184085	19.804672	1.415866
1317.092000	0.151394	0.184085	19.804672	1.417136
1320.080000	0.151394	0.183767	19.804672	1.403488
1323.077000	0.151394	0.184085	19.804672	1.417453
1326.184000	0.151394	0.183767	19.804672	1.442844
1329.076000	0.151394	0.183767	19.804672	1.442844
1332.092000	0.151394	0.184085	19.804672	1.418405
1335.078000	0.151394	0.183767	19.804672	1.418405
1338.165000	0.151394	0.183767	19.804672	1.406345
1341.081000	0.151394	0.183767	19.804989	1.454270
1344.081000	0.151394	0.184085	19.804672	1.401584
1347.097000	0.151394	0.183767	19.804672	1.416184
1350.155000	0.151394	0.183767	19.804672	1.457444
1353.082000	0.151394	0.183767	19.804672	1.415231
1356.149000	0.151394	0.184085	19.804672	1.440623
1359.081999	0.151394	0.183767	19.804672	1.406345
1362.145000	0.151394	0.183767	19.804672	1.417453
1365.081999	0.151394	0.183767	19.804672	1.460935
1368.081999	0.151394	0.183767	19.804989	1.417453
1371.081000	0.151077	0.183767	19.804672	1.439353
1374.077000	0.151394	0.183767	19.804672	1.413962
1377.093000	0.151394	0.183767	19.804672	1.417771
1380.082000	0.151394	0.183767	19.804672	1.428244
1383.077000	0.151394	0.183767	19.804672	1.472679
1386.162000	0.151077	0.184085	19.804672	1.417771
1389.079000	0.151077	0.183767	19.804354	1.417453
1392.087000	0.151394	0.184085	19.804672	1.456174
1395.083000	0.151394	0.183767	19.804672	1.417771
1398.083000	0.151394	0.183767	19.804672	1.418088
1401.117000	0.151394	0.183767	19.804672	1.409518
1404.107000	0.151077	0.183767	19.804672	1.430149
1407.163001	0.151077	0.184085	19.804672	1.430149
1410.079000	0.151394	0.184085	19.804354	1.491722
1413.125000	0.151394	0.184085	19.804672	1.413962
1416.162000	0.151077	0.184085	19.804672	1.456174
1419.110000	0.151077	0.183767	19.804672	1.455540
1422.179000	0.151394	0.183767	19.804672	1.444749
1425.084000	0.151394	0.183767	19.804672	1.456492
1428.080000	0.151394	0.183767	19.804354	1.457761
1431.089000	0.151394	0.183767	19.804672	1.456174
1434.126000	0.151394	0.183767	19.804672	1.469505
1437.093000	0.151394	0.183767	19.804672	1.468553
1440.093000	0.151394	0.183767	19.804354	1.468870
1443.118000	0.151394	0.183767	19.804672	1.455857
1446.096000	0.151394	0.184085	19.804354	1.486326
1449.093000	0.151394	0.183767	19.804354	1.457761
1452.093000	0.151394	0.183767	19.804672	1.487913
1455.084000	0.151394	0.183767	19.804672	1.452048
1458.097000	0.151394	0.183767	19.804672	1.486326
1461.151000	0.151394	0.184085	19.804672	1.447605
1464.089000	0.151394	0.183767	19.804672	1.458079
1467.105999	0.151394	0.183767	19.804672	1.487913
1470.090000	0.151394	0.183767	19.804672	1.430784
1473.085000	0.151394	0.184085	19.804354	1.495531
1476.107000	0.151394	0.184085	19.804354	1.453953
1479.086000	0.151394	0.183767	19.804672	1.455857
1482.153000	0.151394	0.183767	19.804672	1.470140
1485.099000	0.151077	0.183767	19.804672	1.421262
1488.103000	0.151394	0.183767	19.804672	1.480931
1491.092000	0.151394	0.183767	19.804672	1.469505
1494.083000	0.151077	0.183767	19.804354	1.456174
1497.085000	0.151394	0.183767	19.804672	1.480613
1500.109000	0.151077	0.183767	19.804354	1.492674
1503.089000	0.151077	0.183767	19.804672	1.528856
1506.085000	0.151394	0.183767	19.804672	1.492039
1509.089000	0.151394	0.183767	19.804354	1.505052
1512.147000	0.151394	0.184085	19.804672	1.532030
1515.084000	0.151077	0.183767	19.804672	1.456809
1518.088000	0.151394	0.184085	19.804354	1.521874
1521.093000	0.151394	0.183767	19.804672	1.432053
1524.085000	0.151394	0.183767	19.804672	1.432053
1527.089000	0.151394	0.183767	19.804672	1.470457
1530.101000	0.151077	0.183767	19.804354	1.468553
1533.086000	0.151077	0.183767	19.804672	1.469505
1536.090000	0.151077	0.183767	19.804672	1.492039
1539.095000	0.151394	0.183767	19.804672	1.445701
1542.085999	0.151077	0.183767	19.804354	1.456492
1545.107999	0.151077	0.183767	19.804354	1.456492
1548.085999	0.151394	0.183767	19.804354	1.458396
1551.085999	0.151077	0.183767	19.804354	1.434592
1554.151999	0.151077	0.184085	19.804354	1.445701
1557.167000	0.151394	0.183767	19.804672	1.456174
1560.096000	0.151394	0.183767	19.804354	1.469505
1563.096000	0.151394	0.183767	19.804672	1.456174
1566.092000	0.151077	0.183767	19.804354	1.493944
1569.154000	0.151077	0.183767	19.804354	1.467918
1572.086999	0.151394	0.183767	19.804354	1.489818
1575.169000	0.151077	0.183767	19.804354	1.450462
1578.092000	0.151077	0.183767	19.804354	1.456174
1581.087000	0.151077	0.183767	19.804354	1.528856
1584.092000	0.151077	0.183767	19.804672	1.466331
1587.096000	0.151077	0.183767	19.804354	1.455857
1590.092000	0.151077	0.183767	19.804037	1.456174
1593.092000	0.151077	0.183767	19.804354	1.512670
1596.112999	0.151077	0.183767	19.804354	1.481883
1599.202000	0.151077	0.183767	19.804354	1.526000
1602.118000	0.151077	0.183767	19.804354	1.469505
1605.195000	0.151077	0.183767	19.804354	1.456174
1608.090000	0.151077	0.183767	19.804354	1.480931
1611.091000	0.151077	0.183767	19.804354	1.532030
1614.107000	0.151077	0.183767	19.804037	1.531078
1617.107000	0.151077	0.183767	19.804354	1.470774
1620.095000	0.151077	0.183767	19.804037	1.456174
1623.103000	0.151077	0.183767	19.804354	1.477757
1626.091000	0.151077	0.183767	19.804354	1.532348
1629.099000	0.151077	0.183767	19.804354	1.456809
1632.111000	0.151077	0.183767	19.804354	1.532348
1635.103000	0.151077	0.183767	19.804354	1.468870
1638.103000	0.151077	0.183767	19.804354	1.468870
1641.103000	0.151077	0.183767	19.804354	1.473948
1644.104000	0.151077	0.183767	19.804354	1.469505
1647.162000	0.151077	0.183767	19.804354	1.542821
1650.117000	0.151077	0.183767	19.804354	1.481565
1653.092000	0.151077	0.184085	19.804354	1.545043
1656.113000	0.151077	0.183767	19.804354	1.534569
1659.094000	0.151077	0.183767	19.804037	1.546313
1662.099000	0.151394	0.183767	19.804354	1.469505
1665.127000	0.151077	0.183767	19.804354	1.544726
1668.098000	0.151077	0.183767	19.804354	1.546630
1671.118999	0.151394	0.183767	19.804354	1.469505
1674.093999	0.151077	0.183767	19.804037	1.541869
1677.119999	0.151077	0.183767	19.804037	1.498387
1680.094000	0.151077	0.183767	19.804354	1.549169
1683.103000	0.151077	0.183767	19.804037	1.548217
1686.107000	0.151077	0.183767	19.804037	1.544408
1689.098000	0.151394	0.183767	19.804037	1.505052
1692.103000	0.151077	0.183767	19.804354	1.570751
1695.107000	0.151077	0.183767	19.804037	1.475852
1698.117000	0.151077	0.183767	19.804354	1.559325
1701.095000	0.151077	0.183767	19.804037	1.531713
1704.104000	0.151077	0.183767	19.804037	1.544408
1707.131000	0.151077	0.183767	19.804037	1.532665
1710.099000	0.151077	0.183767	19.804037	1.545043
1713.104000	0.151077	0.183767	19.804037	1.557421
1716.112000	0.151077	0.183767	19.803719	1.580273
1719.141000	0.151077	0.183767	19.804037	1.570117
1722.108999	0.151077	0.183767	19.804037	1.543774
1725.147000	0.151077	0.183767	19.804037	1.494896
1728.125000	0.151077	0.183767	19.804037	1.570117
1731.106000	0.151077	0.183767	19.804037	1.566943
1734.176000	0.151077	0.183767	19.804037	1.545043
1737.109000	0.151077	0.183767	19.804037	1.575195
1740.205000	0.151077	0.183767	19.803719	1.560595
1743.106000	0.151077	0.183767	19.804037	1.536474
1746.184000	0.151077	0.183767	19.804037	1.563134
1749.105999	0.151077	0.183767	19.804037	1.497752
1752.180000	0.151077	0.183767	19.804037	1.556469
1755.106000	0.151077	0.183767	19.804037	1.580273
1758.113000	0.151077	0.183767	19.804037	1.577099
1761.102000	0.151077	0.183767	19.804037	1.569165
1764.101000	0.151077	0.183767	19.804037	1.545043
1767.204000	0.151077	0.183767	19.804037	1.570751
1770.101000	0.151077	0.183767	19.803719	1.562499
1773.100999	0.151077	0.183767	19.804037	1.562499
1776.114000	0.151077	0.183767	19.804037	1.579321
1779.122000	0.151077	0.183767	19.804037	1.496483
1782.157000	0.151077	0.183767	19.804037	1.570751
1785.111000	0.151077	0.183767	19.804037	1.571069
1788.191000	0.151077	0.183767	19.804037	1.583130
1791.103000	0.151077	0.183767	19.804037	1.583130
1794.189000	0.151077	0.183767	19.804037	1.533300
1797.156000	0.151077	0.183767	19.803719	1.556152
1800.103000	0.150759	0.183767	19.804037	1.570751
1803.118999	0.151077	0.183767	19.804037	1.546630
1806.112000	0.151077	0.183767	19.804037	1.497118
1809.107000	0.151077	0.183767	19.804037	1.581225
1812.103000	0.151077	0.183767	19.804037	1.582812
1815.098000	0.151077	0.183767	19.803719	1.537108
1818.135000	0.151077	0.183767	19.804037	1.564086
1821.173000	0.151077	0.183767	19.804037	1.557421
1824.098000	0.151077	0.183767	19.804037	1.496483
1827.111000	0.151077	0.183767	19.804037	1.557421
1830.118999	0.151077	0.183767	19.804037	1.546947
1833.099000	0.151077	0.183767	19.804037	1.556786
1836.107000	0.151077	0.183767	19.804037	1.535204
1839.107000	0.151077	0.183767	19.804037	1.574560
1842.098000	0.151077	0.183767	19.804037	1.504417
1845.103000	0.151077	0.183767	19.803719	1.570751
1848.103000	0.151077	0.183767	19.804037	1.582812
1851.173000	0.151077	0.183767	19.804037	1.582812
1854.155999	0.151077	0.183767	19.804037	1.580908
1857.169000	0.151077	0.183767	19.804037	1.551073
1860.111000	0.151077	0.183767	19.804037	1.580908
1863.214000	0.151077	0.183767	19.803719	1.582812
1866.098000	0.151077	0.183767	19.804037	1.583130
1869.098000	0.151077	0.183767	19.804037	1.579956
1872.098000	0.151077	0.183767	19.804037	1.548852
1875.119000	0.151077	0.183767	19.804037	1.578686
1878.098000	0.151077	0.183767	19.803719	1.576147
1881.115000	0.151077	0.183767	19.803719	1.583130
1884.115000	0.151077	0.183767	19.804037	1.583130
1887.215000	0.151077	0.183767	19.803719	1.572338
1890.102000	0.151077	0.183767	19.803719	1.582495
1893.199000	0.151077	0.183767	19.803719	1.558691
1896.102000	0.151077	0.183767	19.803719	1.583130
1899.102000	0.151077	0.183767	19.803085	1.546313
1902.214000	0.151077	0.183767	19.803719	1.582177
1905.164000	0.151077	0.183767	19.803085	1.596460
1908.098000	0.151077	0.183767	19.803719	1.532982
1911.115000	0.151077	0.183767	19.803719	1.583130
1914.107000	0.151077	0.183767	19.803719	1.583130
1917.190000	0.151077	0.183767	19.803719	1.572656
1920.098000	0.151077	0.183767	19.803719	1.581225
1923.107000	0.150759	0.183767	19.803719	1.583130
1926.186000	0.151077	0.183767	19.803719	1.581543
1929.103000	0.150759	0.183767	19.803719	1.560278
1932.100000	0.151077	0.183767	19.803719	1.579321
1935.112000	0.151077	0.183767	19.804037	1.569482
1938.104000	0.151077	0.183767	19.803719	1.580273
1941.115000	0.151077	0.183767	19.803719	1.582177
1944.101000	0.151077	0.183767	19.803719	1.582812
1947.118999	0.151077	0.183767	19.803719	1.583130
1950.106000	0.151077	0.183767	19.803719	1.583130
1953.169000	0.151077	0.183767	19.803085	1.565356
1956.103000	0.151077	0.183767	19.803719	1.583130
1959.103000	0.151077	0.183767	19.803719	1.602808
1962.111000	0.151077	0.183767	19.803719	1.583130
1965.111000	0.151077	0.183767	19.803719	1.554565
1968.104000	0.151077	0.183767	19.803719	1.588843
1971.108000	0.151077	0.183767	19.803719	1.584399
1974.116000	0.151077	0.183767	19.803719	1.582495
1977.189000	0.151077	0.183767	19.803719	1.607568
1980.105000	0.151077	0.183767	19.803719	1.620264
1983.171000	0.150759	0.183767	19.803719	1.583130
1986.107999	0.151077	0.183767	19.803719	1.582812
1989.104000	0.151077	0.183767	19.803719	1.581225
1992.117000	0.151077	0.183767	19.803719	1.552978
1995.129000	0.151077	0.183767	19.803719	1.595190
1998.173000	0.151077	0.183767	19.803719	1.618994
2001.104001	0.151077	0.183767	19.803719	1.583130
2004.117000	0.151077	0.183767	19.803085	1.619312
2007.154000	0.151077	0.183767	19.803719	1.606616
2010.216000	0.151077	0.183767	19.803719	1.585034
2013.105000	0.151077	0.183767	19.803085	1.584399
2016.113000	0.151077	0.183767	19.803719	1.583130
2019.129000	0.151077	0.183767	19.803085	1.585351
2022.109000	0.151077	0.183450	19.803085	1.583130
2025.174000	0.151077	0.183767	19.803085	1.586303
2028.104001	0.151077	0.183767	19.803085	1.615186
2031.129000	0.151077	0.183767	19.803719	1.602808
2034.117000	0.151077	0.183767	19.803085	1.611060
2037.107999	0.151077	0.183767	19.803085	1.587573
2040.150000	0.151077	0.183767	19.803085	1.637720
2043.113000	0.151077	0.183767	19.803085	1.586938
2046.104000	0.151077	0.183767	19.803085	1.598364
2049.113000	0.151077	0.183767	19.803085	1.618677
2052.108000	0.151077	0.183767	19.803085	1.613281
2055.114000	0.151077	0.183767	19.803085	1.564721
2058.117000	0.151077	0.183767	19.803085	1.612647
2061.118000	0.151077	0.183767	19.803085	1.605029
2064.109000	0.151077	0.183767	19.802767	1.598682
2067.109000	0.151077	0.183767	19.802767	1.589160
2070.104000	0.151077	0.183767	19.803085	1.627564
2073.104000	0.151077	0.183767	19.803085	1.608521
2076.129000	0.150759	0.183767	19.803085	1.618677
2079.171000	0.151077	0.183767	19.803085	1.608838
2082.183000	0.151077	0.183767	19.803085	1.582812
2085.107999	0.151077	0.183767	19.803085	1.607568
2088.117000	0.150759	0.183767	19.803085	1.582812
2091.184000	0.150759	0.183767	19.803085	1.583130
2094.104000	0.151077	0.183767	19.802767	1.633277
2097.109000	0.151077	0.183767	19.803085	1.608521
2100.121000	0.151077	0.183767	19.802767	1.623120
2103.117000	0.150759	0.183767	19.803085	1.604712
2106.163001	0.151077	0.183767	19.803085	1.617407
2109.129000	0.151077	0.183450	19.802767	1.582812
2112.109000	0.151077	0.183767	19.802767	1.616455
2115.105000	0.151077	0.183450	19.803085	1.583130
2118.129000	0.151077	0.183767	19.802767	1.617090
2121.107999	0.151077	0.183767	19.803085	1.653272
2124.113000	0.151077	0.183767	19.803085	1.595190
2127.182000	0.151077	0.183767	19.803085	1.657716
2130.105000	0.151077	0.183767	19.802767	1.589477
2133.104001	0.150759	0.183767	19.803085	1.614234
2136.141999	0.150759	0.183767	19.803085	1.606934
2139.118000	0.151077	0.183767	19.802767	1.620899
2142.191000	0.151077	0.183767	19.803085	1.591382
2145.170000	0.151077	0.183767	19.803085	1.629786
2148.109000	0.150759	0.183767	19.803085	1.623120
2151.193000	0.150759	0.183767	19.803085	1.623755
2154.115000	0.151077	0.183767	19.802767	1.597095
2157.173000	0.150759	0.183767	19.802767	1.608521
2160.110000	0.151077	0.183767	19.802767	1.645338
2163.122000	0.150759	0.183767	19.802767	1.622168
2166.122999	0.151077	0.183767	19.802767	1.646924
2169.138000	0.150759	0.183767	19.802767	1.621534
2172.116000	0.151077	0.183767	19.802767	1.621534
2175.124000	0.150759	0.183767	19.802767	1.588208
2178.116000	0.151077	0.183767	19.803085	1.660890
2181.117000	0.150759	0.183767	19.803085	1.624707
2184.113000	0.151077	0.183450	19.803085	1.574878
2187.117000	0.150759	0.183767	19.803085	1.633594
2190.167999	0.151077	0.183767	19.803085	1.647559
2193.109000	0.150759	0.183767	19.803085	1.598047
2196.116000	0.151077	0.183767	19.803085	1.585351
2199.107999	0.151077	0.183767	19.803085	1.620899
2202.108000	0.151077	0.183767	19.802767	1.658985
2205.139000	0.150759	0.183450	19.802767	1.646607
2208.114000	0.151077	0.183767	19.803085	1.641212
2211.110000	0.151077	0.183767	19.803085	1.636451
2214.112999	0.151077	0.183767	19.803085	1.649464
2217.109000	0.151077	0.183767	19.803085	1.640259
2220.112999	0.150759	0.183767	19.803085	1.656764
2223.114000	0.151077	0.183767	19.803085	1.628516
2226.114000	0.151077	0.183767	19.803085	1.693263
2229.126000	0.151077	0.183767	19.803085	1.650733
2232.155000	0.150759	0.183450	19.803085	1.659937
2235.118000	0.150759	0.183767	19.803085	1.670729
2238.114000	0.150759	0.183767	19.802767	1.659303
2241.115000	0.150759	0.183767	19.803085	1.596777
2244.111000	0.151077	0.183767	19.803085	1.668824
2247.123000	0.151077	0.183767	19.803085	1.666602
2250.115000	0.150759	0.183767	19.802767	1.659937
2253.142000	0.150759	0.183767	19.802767	1.664381
2256.112000	0.151077	0.183450	19.802767	1.667237
2259.160000	0.150759	0.183767	19.802767	1.671363
2262.174000	0.150759	0.183450	19.803085	1.695485
2265.119000	0.150759	0.183450	19.803085	1.659620
2268.164000	0.150759	0.183767	19.802767	1.710719
2271.123000	0.150759	0.183767	19.803085	1.696754
2274.194000	0.150759	0.183767	19.802767	1.711354
2277.194000	0.151077	0.183767	19.802767	1.659620
2280.124000	0.150759	0.183767	19.803085	1.646924
2283.144000	0.150759	0.183767	19.802767	1.685646
2286.123000	0.150759	0.183767	19.802767	1.707228
2289.115000	0.150759	0.183767	19.802767	1.693581
2292.129999	0.151077	0.183767	19.802767	1.652320
2295.129000	0.150759	0.183767	19.802767	1.699293
2298.157000	0.150759	0.183767	19.802767	1.693263
2301.120000	0.150759	0.183767	19.802767	1.701198
2304.116000	0.150759	0.183450	19.802767	1.713893
2307.116000	0.150759	0.183450	19.802767	1.696754
2310.121000	0.150759	0.183767	19.803085	1.708815
2313.120000	0.150759	0.183450	19.802767	1.690724
2316.130000	0.150759	0.183450	19.803085	1.703419
2319.119999	0.150759	0.183767	19.802767	1.709767
2322.133000	0.150759	0.183767	19.803085	1.695485
2325.223000	0.150759	0.183450	19.802767	1.698024
2328.180000	0.150759	0.183767	19.802767	1.714211
2331.125000	0.150759	0.183767	19.802767	1.713893
2334.154000	0.150759	0.183767	19.802450	1.710085
2337.130000	0.151077	0.183767	19.802767	1.706911
2340.122000	0.151077	0.183767	19.802767	1.661207
2343.123000	0.151077	0.183767	19.803085	1.698024
2346.118999	0.151077	0.183450	19.802767	1.735476
2349.148000	0.150759	0.183767	19.802767	1.659620
2352.156000	0.150759	0.183450	19.803085	1.709767
2355.132000	0.150759	0.183450	19.802767	1.783719
2358.128000	0.150759	0.183450	19.802767	1.705324
2361.129000	0.150759	0.183450	19.802767	1.741823
2364.129000	0.150759	0.183450	19.802767	1.725954
2367.125000	0.150759	0.183450	19.802767	1.749123
2370.138000	0.150759	0.183450	19.802767	1.709767
2373.135000	0.150759	0.183767	19.802767	1.712624
2376.135000	0.150759	0.183767	19.802767	1.739602
2379.126000	0.150759	0.183450	19.802767	1.696754
2382.169000	0.150759	0.183450	19.802767	1.749123
2385.133000	0.150759	0.183450	19.802767	1.750393
2388.186000	0.151077	0.183450	19.802767	1.749123
2391.124000	0.150759	0.183450	19.802767	1.749123
2394.145000	0.150759	0.183767	19.802767	1.779593
2397.133000	0.150759	0.183767	19.802767	1.787210
2400.199000	0.150759	0.183767	19.802767	1.755788
2403.129000	0.150759	0.183450	19.802767	1.783719
2406.133000	0.150759	0.183450	19.802767	1.742141
2409.138000	0.150759	0.183767	19.802767	1.760867
2412.124000	0.150759	0.183450	19.802767	1.780545
2415.128000	0.150759	0.183450	19.802767	1.749123
2418.161000	0.150759	0.183450	19.802767	1.787210
2421.144001	0.150759	0.183450	19.802767	1.748806
2424.236000	0.150759	0.183450	19.802767	1.774197
2427.194000	0.150759	0.183767	19.802767	1.774197
2430.128000	0.150759	0.183450	19.803085	1.761501
2433.137000	0.150759	0.183767	19.802767	1.760867
2436.133000	0.150759	0.183450	19.803085	1.787210
2439.125000	0.150759	0.183767	19.802767	1.757375
2442.146000	0.150759	0.183450	19.802767	1.749441
2445.133000	0.150759	0.183767	19.802450	1.785940
2448.188000	0.150759	0.183450	19.802767	1.749123
2451.124000	0.150759	0.183450	19.802767	1.749123
2454.137000	0.150759	0.183450	19.802767	1.750075
2457.165000	0.150759	0.183450	19.802450	1.748171
2460.129000	0.150759	0.183450	19.802767	1.687233
2463.141000	0.150759	0.183450	19.802767	1.785940
2466.129000	0.150759	0.183450	19.802450	1.764040
2469.125000	0.150759	0.183767	19.802767	1.831962
2472.129000	0.150759	0.183450	19.802450	1.794510
2475.124000	0.150759	0.183450	19.802767	1.763406
2478.151000	0.150759	0.183450	19.802450	1.787527
2481.133999	0.150759	0.183450	19.802767	1.787527
2484.140999	0.150759	0.183767	19.802450	1.787210
2487.126000	0.150759	0.183450	19.802450	1.787527
2490.126000	0.150759	0.183450	19.802767	1.752297
2493.135000	0.150759	0.183450	19.802450	1.802444
2496.126000	0.150759	0.183450	19.802450	1.787210
2499.127000	0.150759	0.183450	19.802450	1.749441
2502.126999	0.150759	0.183450	19.802767	1.796414
2505.132000	0.150759	0.183767	19.802450	1.778323
2508.132000	0.150759	0.183450	19.802450	1.822757
2511.173000	0.150759	0.183450	19.802450	1.807840
2514.154000	0.150759	0.183767	19.802450	1.766897
2517.145000	0.150759	0.183450	19.802450	1.803714
2520.132000	0.150759	0.183767	19.802450	1.784353
2523.189000	0.150759	0.183450	19.802450	1.756106
2526.133000	0.150759	0.183450	19.802450	1.797366
2529.137000	0.150759	0.183767	19.802450	1.812283
2532.129000	0.150759	0.183767	19.802450	1.782449
2535.130000	0.150759	0.183450	19.802450	1.780227
2538.142000	0.150759	0.183450	19.802450	1.818631
2541.229000	0.150759	0.183450	19.802450	1.787845
2544.142000	0.150759	0.183450	19.802450	1.787527
2547.146000	0.150759	0.183450	19.802450	1.757375
2550.184000	0.150759	0.183450	19.802450	1.797684
2553.129000	0.150759	0.183450	19.802450	1.797684
2556.129000	0.150759	0.183450	19.802450	1.824662
2559.133999	0.150759	0.183450	19.802450	1.837674
2562.138000	0.150759	0.183767	19.802450	1.860209
2565.134000	0.150759	0.183450	19.802132	1.788162
2568.142000	0.150759	0.183450	19.802450	1.823709
2571.137000	0.150759	0.183450	19.802450	1.788162
2574.138000	0.150759	0.183450	19.802450	1.811966
2577.133000	0.150759	0.183450	19.802450	1.824344
2580.143000	0.150759	0.183450	19.802132	1.777371
2583.138999	0.150124	0.183767	19.802450	1.756423
2586.140000	0.150759	0.183450	19.802132	1.788479
2589.160000	0.150759	0.183450	19.802450	1.824662
2592.189000	0.150759	0.183450	19.802450	1.824662
2595.141000	0.150759	0.183450	19.802450	1.754202
2598.158000	0.150759	0.183450	19.802450	1.825614
2601.203001	0.150759	0.183450	19.802450	1.793875
2604.244999	0.150759	0.183450	19.802450	1.791018
2607.145999	0.150759	0.183450	19.802450	1.804666
2610.151000	0.150759	0.183450	19.802450	1.853861
2613.249000	0.150759	0.183450	19.802767	1.802127
2616.143000	0.150759	0.183450	19.802767	1.824662
2619.154000	0.150759	0.183450	19.802450	1.791336
2622.243000	0.150759	0.183450	19.802450	1.845927
2625.138000	0.150759	0.183450	19.802767	1.809744
2628.138000	0.150759	0.183450	19.802767	1.850053
2631.166000	0.150759	0.183450	19.802767	1.787210
2634.140999	0.150759	0.183450	19.802767	1.824344
2637.140999	0.150759	0.183450	19.802767	1.824344
2640.182000	0.150759	0.183450	19.802450	1.856400
2643.229000	0.150759	0.183450	19.802767	1.803714
2646.151999	0.150759	0.183450	19.802450	1.788162
2649.136000	0.150759	0.183450	19.802450	1.774514
2652.140000	0.150759	0.183450	19.802450	1.809110
2655.161000	0.150759	0.183450	19.802450	1.837357
2658.155999	0.150759	0.183450	19.802450	1.763723
2661.229000	0.150759	0.183450	19.802450	1.793875
2664.177000	0.150759	0.183767	19.802450	1.789432
2667.145000	0.150759	0.183450	19.802132	1.788479
2670.145000	0.150759	0.183450	19.802450	1.825296
2673.219000	0.150759	0.183450	19.802450	1.838627
2676.137001	0.150759	0.183450	19.802132	1.837674
2679.140000	0.150124	0.183450	19.802450	1.788162
2682.140000	0.150759	0.183450	19.802450	1.799588
2685.148999	0.150759	0.183450	19.802450	1.787527
2688.149000	0.150759	0.183767	19.802450	1.788162
2691.144000	0.150759	0.183450	19.802450	1.734206
2694.144000	0.150759	0.183450	19.802450	1.824344
2697.151999	0.150759	0.183767	19.802767	1.821170
2700.191000	0.150759	0.183450	19.802450	1.776101
2703.157000	0.150759	0.183450	19.802450	1.824344
2706.165000	0.150759	0.183450	19.802450	1.770388
2709.148999	0.150759	0.183450	19.802132	1.793558
2712.151999	0.150759	0.183450	19.802450	1.795462
2715.137000	0.150759	0.183450	19.802450	1.836087
2718.151000	0.150759	0.183450	19.802450	1.843387
2721.150000	0.150759	0.183450	19.802132	1.851640
2724.173000	0.150759	0.183450	19.802132	1.839261
2727.212000	0.150759	0.183450	19.802132	1.785623
2730.209000	0.150759	0.183450	19.802132	1.837674
2733.250000	0.150759	0.183450	19.802132	1.787845
2736.225000	0.150759	0.183450	19.802132	1.799271
2739.145000	0.150759	0.183450	19.802450	1.823709
2742.161000	0.150759	0.183450	19.802132	1.848148
2745.150000	0.150759	0.183450	19.802132	1.787845
2748.192000	0.150759	0.183450	19.802132	1.762454
2751.208000	0.150759	0.183450	19.802132	1.838309
2754.142000	0.150759	0.183450	19.802132	1.850053
2757.137001	0.150759	0.183450	19.802132	1.862431
2760.140999	0.150759	0.183450	19.802132	1.821488
2763.237999	0.150124	0.183450	19.802132	1.831644
2766.234000	0.150759	0.183450	19.802132	1.860209
2769.180000	0.150759	0.183450	19.802132	1.847513
2772.147000	0.150759	0.183450	19.802132	1.859574
2775.151000	0.150759	0.183450	19.802450	1.850053
2778.142000	0.150759	0.183450	19.802132	1.862113
2781.163001	0.150759	0.183450	19.802450	1.873857
2784.147000	0.150759	0.183450	19.802132	1.871952
2787.176000	0.150759	0.183450	19.802132	1.814188
2790.142000	0.150759	0.183450	19.802450	1.855448
2793.143000	0.150759	0.183450	19.802132	1.830057
2796.164000	0.150759	0.183450	19.802132	1.845927
2799.147000	0.150759	0.183450	19.802132	1.816727
2802.155000	0.150124	0.183450	19.802450	1.871952
2805.138000	0.150759	0.183450	19.802132	1.847513
2808.139000	0.150759	0.183450	19.802132	1.856400
2811.148000	0.150759	0.183450	19.802132	1.850370
2814.148000	0.150124	0.183450	19.802132	1.837992
2817.148000	0.150759	0.183450	19.801815	1.839579
2820.140000	0.150759	0.183450	19.802132	1.850687
2823.210000	0.150124	0.183450	19.801815	1.875444
2826.169000	0.150759	0.183450	19.802132	1.862748
2829.139000	0.150759	0.183450	19.802132	1.850053
2832.144000	0.150759	0.183450	19.801815	1.851640
2835.139000	0.150124	0.183450	19.802132	1.874809
2838.138999	0.150759	0.183767	19.802132	1.841800
2841.255000	0.150124	0.183450	19.802132	1.864018
2844.148000	0.150124	0.183450	19.802132	1.865605
2847.165000	0.150759	0.183450	19.802132	1.854179
2850.164000	0.150759	0.183450	19.802132	1.837674
2853.218000	0.150759	0.183450	19.801815	1.875761
2856.145000	0.150759	0.183450	19.802132	1.849735
2859.142000	0.150759	0.183450	19.801815	1.864018
2862.156000	0.150759	0.183450	19.802132	1.824027
2865.151000	0.150759	0.183450	19.802132	1.837992
2868.142000	0.150759	0.183450	19.802132	1.827518
2871.143000	0.150759	0.183450	19.802132	1.856718
2874.192000	0.150759	0.183450	19.802132	1.853861
2877.151000	0.150759	0.183450	19.802132	1.888456
2880.147000	0.150759	0.183450	19.801815	1.834818
2883.143000	0.150759	0.183450	19.801815	1.890996
2886.152000	0.150759	0.183450	19.801815	1.881791
2889.148000	0.150124	0.183450	19.802132	1.891948
2892.147000	0.150124	0.183450	19.802132	1.851322
2895.164999	0.150759	0.183450	19.802132	1.802127
2898.147000	0.150759	0.183450	19.802132	1.815775
2901.143000	0.150759	0.183450	19.802132	1.876713
2904.144000	0.150759	0.183450	19.802132	1.902104
2907.144000	0.150759	0.183450	19.802132	1.907182
2910.206000	0.150759	0.183450	19.801815	1.871635
2913.148000	0.150124	0.183450	19.801815	1.870365
2916.144000	0.150124	0.183450	19.802132	1.894804
2919.155999	0.150124	0.183450	19.801815	1.867509
2922.177000	0.150759	0.183450	19.801815	1.839896
2925.223000	0.150124	0.183450	19.802132	1.890361
2928.159000	0.150759	0.183450	19.801815	1.875444
2931.154000	0.150124	0.183450	19.801815	1.911943
2934.151000	0.150759	0.183450	19.801815	1.901152
2937.150000	0.150759	0.183450	19.801815	1.898296
2940.220000	0.150759	0.183450	19.801815	1.876078
2943.151999	0.150124	0.183450	19.801815	1.876078
2946.235000	0.150124	0.183450	19.802132	1.914482
2949.148000	0.150124	0.183450	19.801815	1.888139
2952.156000	0.150759	0.183450	19.801815	1.897978
2955.151000	0.150124	0.183450	19.801815	1.884013
2958.181000	0.150124	0.183450	19.801815	1.893535
2961.147000	0.150759	0.183450	19.802132	1.890996
2964.148000	0.150759	0.183450	19.802132	1.865605
2967.151000	0.150124	0.183450	19.801815	1.877665
2970.147000	0.150124	0.183450	19.802132	1.888774
2973.161000	0.150124	0.183450	19.801815	1.853861
2976.152999	0.150759	0.183450	19.801815	1.888774
2979.150000	0.150759	0.183450	19.801815	1.907182
2982.163000	0.150124	0.183450	19.801815	1.900517
2985.156000	0.150759	0.183450	19.801815	1.888774
2988.156000	0.150124	0.183450	19.802132	1.884965
2991.168000	0.150124	0.183450	19.801815	1.900517
2994.151999	0.150124	0.183450	19.801815	1.905595
2997.151999	0.150124	0.183450	19.802132	1.912895
3000.152999	0.150124	0.183450	19.801815	1.878935
3003.153000	0.150759	0.183450	19.802132	1.925908
3006.153000	0.150124	0.183450	19.802132	1.886870
3009.169000	0.150759	0.183450	19.802450	1.889091
3012.199000	0.150124	0.183450	19.802132	1.913847
3015.153000	0.150759	0.183450	19.801815	1.915752
3018.155000	0.150759	0.183450	19.802132	1.901152
3021.199999	0.150124	0.183450	19.801815	1.899565
3024.155000	0.150759	0.183450	19.801815	1.913847
3027.155000	0.150759	0.183450	19.802132	1.921147
3030.154000	0.150759	0.183450	19.801815	1.927813
3033.163000	0.150759	0.183450	19.802132	1.911626
3036.162000	0.150124	0.183450	19.801815	1.942730
3039.155000	0.150759	0.183450	19.801815	1.922734
3042.159000	0.150124	0.183450	19.801815	1.916387
3045.167999	0.150759	0.183450	19.801815	1.904643
3048.159000	0.150124	0.183450	19.801815	1.950982
3051.233000	0.150124	0.183450	19.801815	1.891630
3054.196000	0.150124	0.183450	19.801815	1.946221
3057.234000	0.150759	0.183450	19.801815	1.946538
3060.246000	0.150124	0.183450	19.801815	1.942412
3063.173000	0.150124	0.183450	19.801180	1.910674
3066.214000	0.150124	0.183450	19.801180	1.893535
3069.157000	0.150759	0.183450	19.801815	1.942730
3072.171999	0.150124	0.183450	19.801815	1.908134
3075.213000	0.150759	0.183450	19.801815	1.905595
3078.159999	0.150759	0.183450	19.801815	1.890996
3081.214000	0.150759	0.183450	19.801815	1.961456
3084.264000	0.150124	0.183450	19.801815	1.912895
3087.166000	0.150759	0.183450	19.801815	1.938286
3090.170000	0.150124	0.183450	19.801180	1.939239
3093.229001	0.150124	0.183450	19.801180	1.951934
3096.166000	0.150124	0.183450	19.801180	1.952569
3099.171000	0.150124	0.183450	19.801815	1.952569
3102.163000	0.150124	0.183450	19.801180	1.897661
3105.174000	0.150759	0.183450	19.801180	1.932573
3108.174000	0.150124	0.183450	19.801815	1.916704
3111.213000	0.150124	0.183450	19.801180	1.916387
3114.252000	0.150124	0.183450	19.801180	1.929717
3117.163001	0.150124	0.183450	19.801180	1.916387
3120.163001	0.150759	0.183450	19.801180	1.925273
3123.171999	0.150124	0.183450	19.801180	1.952251
3126.230000	0.150759	0.183450	19.801815	1.963360
3129.164000	0.150124	0.183450	19.801815	1.936699
3132.163000	0.150124	0.183450	19.801815	1.962090
3135.159000	0.150759	0.183450	19.801815	1.914482
3138.168000	0.150759	0.183450	19.801815	1.919878
3141.238000	0.150124	0.183450	19.801180	1.914482
3144.271000	0.150759	0.183450	19.801815	1.922417
3147.164000	0.150124	0.183450	19.801180	1.914482
3150.197000	0.150124	0.183450	19.801180	1.952251
3153.159999	0.150759	0.183450	19.801180	1.952251
3156.163000	0.150124	0.183450	19.801180	1.927178
3159.184000	0.150759	0.183450	19.801180	1.961456
3162.188000	0.150124	0.183450	19.801815	1.952569
3165.259000	0.150124	0.183450	19.801815	1.952251
3168.200000	0.150124	0.183450	19.801815	1.951934
3171.164000	0.150124	0.183450	19.801815	1.952886
3174.172000	0.150124	0.183450	19.801815	1.952251
3177.164999	0.150124	0.183450	19.801815	1.927813
3180.174000	0.150124	0.183450	19.801180	1.952569
3183.165000	0.150124	0.183450	19.801180	1.952569
3186.195000	0.150124	0.183450	19.801815	1.952569
3189.183000	0.150124	0.183450	19.801180	1.929717
3192.266000	0.150124	0.183450	19.801180	1.954473
3195.167000	0.150124	0.183450	19.801180	1.976056
3198.170001	0.150124	0.183450	19.801180	1.950664
3201.171000	0.150124	0.183450	19.801815	1.953838
3204.168000	0.150759	0.183450	19.801180	1.986847
3207.177000	0.150124	0.183133	19.801180	1.952886
3210.177999	0.150124	0.183450	19.801180	1.952569
3213.172000	0.150759	0.183450	19.801180	1.975103
3216.172000	0.150124	0.183450	19.801180	1.990973
3219.220000	0.150124	0.183450	19.801815	1.972882
3222.177000	0.150124	0.183450	19.801180	1.958599
3225.166000	0.150124	0.183450	19.801180	1.958599
3228.171000	0.150124	0.183450	19.801815	1.973516
3231.171000	0.150124	0.183450	19.801815	1.960503
3234.166999	0.150759	0.183450	19.801815	1.977008
3237.169000	0.150124	0.183450	19.801815	1.989386
3240.177999	0.150124	0.183450	19.801180	1.964947
3243.181000	0.150124	0.183450	19.801180	1.953838
3246.173000	0.150124	0.183450	19.801180	2.002399
3249.179000	0.150124	0.183450	19.801180	1.977325
3252.175000	0.150124	0.183450	19.801180	1.965899
3255.170000	0.150124	0.183450	19.801180	1.952251
3258.175000	0.150124	0.183450	19.801180	1.939873
3261.180000	0.150124	0.183450	19.801180	1.943365
3264.177000	0.150124	0.183450	19.801180	1.950664
3267.173000	0.150124	0.183450	19.801180	1.986212
3270.181000	0.150124	0.183450	19.801180	1.986529
3273.205000	0.150124	0.183450	19.801180	1.997003
3276.231000	0.150124	0.183450	19.801180	1.967486
3279.177000	0.150124	0.183450	19.801180	1.954156
3282.181999	0.150124	0.183450	19.801180	1.992242
3285.253000	0.150124	0.183450	19.800863	1.979229
3288.177000	0.150124	0.183450	19.800545	1.984625
3291.177000	0.150759	0.183450	19.801180	1.990655
3294.177999	0.150124	0.183450	19.801180	1.986529
3297.179000	0.150124	0.183450	19.801180	1.983355
3300.179000	0.150124	0.183450	19.801180	1.995416
3303.179000	0.150124	0.183450	19.801180	1.982086
3306.180000	0.150124	0.183450	19.801180	1.986529
3309.178999	0.150124	0.183450	19.801180	1.964947
3312.199000	0.150124	0.183450	19.800863	1.990973
3315.187000	0.150124	0.183450	19.801180	1.990973
3318.187000	0.150124	0.183450	19.801180	1.990973
3321.187000	0.150124	0.183450	19.801180	1.991290
3324.229000	0.150124	0.183450	19.800863	1.990655
3327.202000	0.150124	0.183450	19.801180	1.990973
3330.176000	0.150124	0.183450	19.801180	2.014777
3333.177999	0.150124	0.183450	19.801180	2.027790
3336.182000	0.150124	0.183450	19.800863	2.015094
3339.182000	0.150124	0.183450	19.801180	1.994147
3342.192000	0.150124	0.183450	19.801180	2.001446
3345.187000	0.150124	0.183450	19.801180	2.000177
3348.179000	0.150124	0.183450	19.800863	2.001446
3351.200000	0.150124	0.183450	19.801180	2.002716
3354.292000	0.150124	0.183450	19.801180	1.994464
3357.181000	0.150124	0.183450	19.800863	2.040802
3360.188999	0.150124	0.183450	19.801180	2.003351
3363.185000	0.150124	0.183450	19.801180	2.002716
3366.222000	0.150124	0.183450	19.800863	2.047150
3369.184000	0.150124	0.183450	19.800863	2.003033
3372.180000	0.150124	0.183450	19.801180	2.000812
3375.189000	0.150124	0.183450	19.800863	2.014142
3378.239000	0.150124	0.183450	19.801180	2.025568
3381.181000	0.150124	0.183450	19.800863	2.040802
3384.181999	0.150124	0.183450	19.801180	2.012238
3387.251999	0.150124	0.183450	19.800863	2.023664
3390.187000	0.150124	0.183450	19.800863	2.011286
3393.197000	0.150124	0.183450	19.800863	2.004620
3396.183000	0.150124	0.183450	19.800863	2.015729
3399.199000	0.150124	0.183450	19.801180	2.003351
3402.183000	0.150124	0.183450	19.800863	2.003033
3405.266000	0.150124	0.183450	19.800863	2.015094
3408.284000	0.150124	0.183450	19.801180	2.005255
3411.207000	0.150124	0.183450	19.800863	2.003033
3414.188000	0.150124	0.183450	19.800863	2.040802
3417.189000	0.150124	0.183133	19.800863	2.027790
3420.184000	0.150124	0.183450	19.800863	2.040802
3423.184000	0.150124	0.183450	19.800863	2.050642
3426.200000	0.150124	0.183450	19.801180	2.015094
3429.185000	0.150124	0.183450	19.801180	2.013507
3432.247000	0.150124	0.183450	19.800863	2.025568
3435.190000	0.150124	0.183450	19.801180	2.026203
3438.258999	0.150124	0.183450	19.801180	2.035407
3441.244000	0.150124	0.183133	19.800863	2.003668
3444.187000	0.150124	0.183450	19.800863	2.003033
3447.192000	0.150124	0.183133	19.800863	2.010968
3450.200000	0.150124	0.183450	19.800863	2.002081
3453.212000	0.150124	0.183133	19.801180	2.002716
3456.212000	0.150124	0.183450	19.801180	2.015729
3459.196001	0.150124	0.183450	19.801180	2.022712
3462.192000	0.150124	0.183450	19.800863	2.027155
3465.192000	0.150124	0.183450	19.801180	2.019220
3468.201000	0.150124	0.183450	19.800863	2.028742
3471.262000	0.150124	0.183450	19.801180	2.004938
3474.205000	0.150124	0.183450	19.801180	2.017633
3477.197000	0.150124	0.183133	19.801180	2.038898
3480.193000	0.150124	0.183450	19.800863	2.003351
3483.203001	0.150124	0.183450	19.801180	2.027472
3486.193999	0.150124	0.183450	19.800863	2.015412
3489.214000	0.150124	0.183450	19.800863	2.003668
3492.230999	0.150124	0.183450	19.800863	2.028742
3495.198000	0.150124	0.183450	19.800863	2.003668
3498.239000	0.150124	0.183450	19.800863	2.054450
3501.198000	0.150124	0.183450	19.801180	2.037629
3504.198000	0.150124	0.183450	19.800863	2.026520
3507.232000	0.150124	0.183450	19.801180	2.049372
3510.224000	0.150124	0.183450	19.801180	2.009064
3513.266999	0.150124	0.183450	19.801180	2.046515
3516.204000	0.150124	0.183450	19.801180	2.085872
3519.299000	0.150124	0.183450	19.800863	2.061115
3522.196000	0.150124	0.183450	19.800863	2.047150
3525.192000	0.149807	0.183133	19.801180	2.040802
3528.192000	0.150124	0.183450	19.800863	2.017316
3531.217000	0.150124	0.183450	19.801180	2.060481
3534.208000	0.150124	0.183450	19.800863	2.059846
3537.213000	0.149807	0.183450	19.800863	2.059846
3540.280000	0.150124	0.183450	19.800863	2.040802
3543.267000	0.150124	0.183450	19.801180	2.065876
3546.207000	0.150124	0.183450	19.800863	2.074763
3549.223000	0.150124	0.183450	19.800863	2.045881
3552.222000	0.150124	0.183450	19.800863	2.054768
3555.202000	0.150124	0.183450	19.800863	2.063972
3558.197000	0.150124	0.183450	19.800863	2.076033
3561.276000	0.150124	0.183450	19.800863	2.055085
3564.192999	0.150124	0.183450	19.800863	2.041120
3567.202000	0.150124	0.183450	19.800863	2.064924
3570.197999	0.150124	0.183450	19.800863	2.077302
3573.282000	0.150124	0.183450	19.801180	2.078889
3576.227000	0.150124	0.183450	19.801180	2.078889
3579.202000	0.150124	0.183450	19.801180	2.049055
3582.202000	0.150124	0.183450	19.801180	2.078889
3585.281000	0.150124	0.183450	19.800863	2.041120
3588.203001	0.150124	0.183450	19.801180	2.059846
3591.199000	0.150124	0.183450	19.801180	2.071907
3594.204000	0.150124	0.183450	19.801180	2.053498
3597.199999	0.150124	0.183450	19.800863	2.031598
3600.209000	0.150124	0.183450	19.801180	2.049372
3603.196000	0.150124	0.183450	19.800863	2.029377
3606.206000	0.150124	0.183450	19.800863	2.077937
3609.200000	0.150124	0.183133	19.801180	2.078889
3612.200000	0.150124	0.183450	19.800863	2.053498
3615.258000	0.150124	0.183450	19.801180	2.079206
3618.204999	0.150124	0.183133	19.801180	2.103645
3621.209000	0.150124	0.183133	19.800863	2.103645
3624.213000	0.150124	0.183450	19.800863	2.130941
3627.213000	0.150124	0.183450	19.801180	2.079524
3630.197000	0.150124	0.183450	19.801180	2.079524
3633.198000	0.150124	0.183450	19.801180	2.079206
3636.286000	0.150124	0.183450	19.801180	2.089680
3639.202000	0.150124	0.183450	19.800863	2.067780
3642.273999	0.150124	0.183450	19.800863	2.078889
3645.273000	0.150124	0.183450	19.800863	2.042389
3648.199000	0.150124	0.183450	19.800863	2.040802
3651.199000	0.150124	0.183450	19.801180	2.030963
3654.203000	0.150124	0.183450	19.801180	2.040802
3657.212000	0.150124	0.183450	19.800863	2.056355
3660.208000	0.150124	0.183450	19.800863	2.041120
3663.204000	0.150124	0.183450	19.801180	2.071272
3666.204000	0.150124	0.183133	19.800863	2.101106
3669.211999	0.150124	0.183450	19.800863	2.102693
3672.211999	0.150124	0.183450	19.800863	2.078572
3675.237000	0.150124	0.183450	19.800863	2.041120
3678.204000	0.150124	0.183450	19.800863	2.053498
3681.204000	0.150124	0.183133	19.800863	2.066828
3684.199000	0.150124	0.183450	19.801180	2.078889
3687.204000	0.150124	0.183450	19.800863	2.082698
3690.204000	0.150124	0.183450	19.800863	2.105550
3693.204000	0.150124	0.183450	19.800863	2.129036
3696.204000	0.150124	0.183450	19.800863	2.105550
3699.204999	0.150124	0.183450	19.800863	2.091585
3702.262000	0.150124	0.183450	19.801180	2.078889
3705.206000	0.150124	0.183450	19.800863	2.131258
3708.215000	0.150124	0.183450	19.801180	2.127449
3711.206000	0.150124	0.183133	19.800863	2.090950
3714.215000	0.150124	0.183133	19.800863	2.122054
3717.202000	0.150124	0.183450	19.800863	2.109676
3720.273000	0.150124	0.183450	19.800863	2.141097
3723.302000	0.150124	0.183450	19.800863	2.094759
3726.210999	0.150124	0.183450	19.801180	2.131575
3729.210000	0.150124	0.183450	19.801180	2.098567
3732.215000	0.150124	0.183450	19.800863	2.115706
3735.228000	0.150124	0.183450	19.800863	2.156332
3738.261000	0.150124	0.183133	19.801180	2.131258
3741.228000	0.150124	0.183450	19.800863	2.129671
3744.206000	0.150124	0.183450	19.800863	2.120149
3747.203000	0.150124	0.183133	19.800863	2.102693
3750.228000	0.150124	0.183450	19.800863	2.129671
3753.203000	0.150124	0.183450	19.800863	2.081428
3756.212000	0.150124	0.183133	19.800863	2.135067
3759.204000	0.150124	0.183450	19.800863	2.136336
3762.204000	0.150124	0.183450	19.800863	2.155380
3765.208000	0.150124	0.183450	19.800863	2.133162
3768.205000	0.150124	0.183133	19.800863	2.156332
3771.204000	0.150124	0.183450	19.800863	2.189023
3774.233999	0.150124	0.183133	19.800863	2.131258
3777.204000	0.150124	0.183450	19.800863	2.131893
3780.211999	0.150124	0.183450	19.800863	2.131258
3783.304000	0.150124	0.183450	19.800863	2.133162
3786.213000	0.150124	0.183450	19.800863	2.144271
3789.233000	0.150124	0.183450	19.800863	2.148397
3792.217000	0.150124	0.183450	19.800863	2.148080
3795.229001	0.150124	0.183450	19.800863	2.156966
3798.207999	0.150124	0.183450	19.800863	2.143636
3801.207999	0.150124	0.183450	19.800863	2.123323
3804.270000	0.149807	0.183450	19.800863	2.130941
3807.208000	0.150124	0.183133	19.800863	2.159506
3810.300000	0.150124	0.183133	19.800863	2.117928
3813.204000	0.150124	0.183450	19.800863	2.131258
3816.205000	0.149807	0.183133	19.800863	2.131258
3819.208000	0.150124	0.183450	19.800863	2.168392
3822.213000	0.149807	0.183450	19.800863	2.131258
3825.213000	0.150124	0.183450	19.801180	2.118245
3828.204999	0.150124	0.183450	19.800863	2.118245
3831.263000	0.149807	0.183450	19.800863	2.132210
3834.272000	0.150124	0.183450	19.800863	2.144906
3837.225000	0.150124	0.183450	19.800863	2.206479
3840.217000	0.150124	0.183450	19.800863	2.167758
3843.213000	0.150124	0.183450	19.800863	2.156332
3846.208000	0.149807	0.183133	19.800863	2.161093
3849.304000	0.150124	0.183450	19.800545	2.169027
3852.242000	0.150124	0.183450	19.800545	2.137288
3855.263000	0.150124	0.183450	19.800863	2.173153
3858.213000	0.150124	0.183133	19.800863	2.173153
3861.233000	0.150124	0.183450	19.800863	2.203305
3864.217000	0.150124	0.183450	19.800863	2.203622
3867.204000	0.150124	0.183133	19.800863	2.178231
3870.205000	0.150124	0.183450	19.800545	2.169027
3873.214000	0.150124	0.183450	19.800863	2.162362
3876.210999	0.150124	0.183450	19.800545	2.185531
3879.284999	0.150124	0.183133	19.800863	2.185849
3882.302000	0.150124	0.183450	19.800863	2.182040
3885.298000	0.150124	0.183450	19.800863	2.162997
3888.220000	0.150124	0.183450	19.800863	2.156966
3891.216000	0.150124	0.183450	19.800863	2.169027
3894.267000	0.150124	0.183133	19.800863	2.168075
3897.220000	0.150124	0.183450	19.800545	2.156966
3900.265000	0.150124	0.183450	19.800863	2.169027
3903.246000	0.150124	0.183450	19.800863	2.169027
3906.216000	0.150124	0.183450	19.800863	2.205527
3909.216000	0.150124	0.183450	19.800863	2.181405
3912.213000	0.150124	0.183450	19.800545	2.169027
3915.284000	0.150124	0.183450	19.800545	2.208066
3918.214000	0.150124	0.183133	19.800545	2.157284
3921.209000	0.150124	0.183133	19.800545	2.158871
3924.214000	0.150124	0.183450	19.800545	2.202353
3927.231000	0.150124	0.183450	19.800545	2.160140
3930.210999	0.150124	0.183450	19.800863	2.177279
3933.223000	0.150124	0.183133	19.800863	2.187436
3936.225999	0.150124	0.183133	19.800863	2.169345
3939.210999	0.150124	0.183133	19.800863	2.191562
3942.214000	0.150124	0.183450	19.800863	2.182358
3945.264000	0.150124	0.183133	19.800863	2.187118
3948.215000	0.150124	0.183450	19.800545	2.156966
3951.227000	0.149807	0.183133	19.800863	2.169027
3954.225999	0.150124	0.183450	19.800863	2.156966
3957.223000	0.150124	0.183450	19.800863	2.231235
3960.276000	0.150124	0.183133	19.800863	2.206161
3963.220000	0.150124	0.183450	19.800545	2.219492
3966.220000	0.150124	0.183133	19.800863	2.168392
3969.236000	0.150124	0.183450	19.800545	2.202353
3972.216000	0.150124	0.183450	19.800863	2.169345
3975.220000	0.150124	0.183450	19.800863	2.171566
3978.324000	0.150124	0.183450	19.800545	2.207748
3981.225999	0.150124	0.183450	19.800545	2.169345
3984.225999	0.149807	0.183450	19.800545	2.210288
3987.213000	0.149807	0.183133	19.800545	2.243613
3990.213000	0.150124	0.183133	19.800545	2.243931
3993.242000	0.150124	0.183450	19.800863	2.199814
3996.305000	0.150124	0.183450	19.800545	2.199496
3999.227000	0.149807	0.183450	19.800228	2.243931
4002.265000	0.149807	0.183133	19.800545	2.169027
4005.227000	0.149807	0.183133	19.800545	2.238535
4008.218000	0.150124	0.183133	19.800545	2.227427
4011.218999	0.150124	0.183133	19.800545	2.238853
4014.214000	0.149807	0.183450	19.800545	2.233774
4017.273000	0.149807	0.183133	19.800545	2.096663
4020.219000	0.150124	0.183450	19.800545	2.197275
4023.225000	0.149807	0.183133	19.800545	2.202353
4026.216000	0.150124	0.183450	19.800545	2.206479
4029.216000	0.149807	0.183450	19.800545	2.208066
4032.224000	0.150124	0.183450	19.800863	2.231870
4035.216000	0.150124	0.183450	19.800545	2.219809
4038.217000	0.150124	0.183133	19.800545	2.207748
4041.242000	0.150124	0.183450	19.800863	2.208701
4044.227000	0.150124	0.183450	19.800545	2.220444
4047.284000	0.150124	0.183450	19.800545	2.208701
4050.219000	0.150124	0.183133	19.800545	2.255991
4053.234000	0.150124	0.183450	19.800545	2.227744
4056.234000	0.150124	0.183133	19.800863	2.281065
4059.223000	0.150124	0.183450	19.800545	2.250913
4062.218999	0.149807	0.183450	19.800545	2.259800
4065.223000	0.149807	0.183450	19.800545	2.249326
4068.223000	0.149807	0.183133	19.800545	2.234092
4071.229000	0.149807	0.183133	19.800545	2.223618
4074.221000	0.150124	0.183450	19.800545	2.232187
4077.254000	0.150124	0.183133	19.800545	2.231870
4080.283000	0.150124	0.183133	19.800863	2.230283
4083.234000	0.150124	0.183133	19.800545	2.222348
4086.229000	0.150124	0.183450	19.800228	2.229648
4089.225999	0.150124	0.183133	19.800545	2.221714
4092.329000	0.150124	0.183450	19.800228	2.209335
4095.310999	0.150124	0.183450	19.800545	2.209970
4098.222000	0.150124	0.183133	19.800545	2.232187
4101.222000	0.150124	0.183450	19.800545	2.232505
4104.226000	0.150124	0.183133	19.800545	2.221396
4107.281000	0.150124	0.183450	19.800545	2.253770
4110.320000	0.149807	0.183450	19.800545	2.232187
4113.240999	0.150124	0.183133	19.800545	2.232187
4116.237999	0.149807	0.183450	19.800545	2.243613
4119.225999	0.149807	0.183133	19.800228	2.232187
4122.244000	0.149807	0.183133	19.800545	2.232187
4125.232000	0.150124	0.183133	19.800228	2.256943
4128.240000	0.150124	0.183450	19.800228	2.233457
4131.240000	0.150124	0.183133	19.800545	2.245835
4134.231000	0.149807	0.183133	19.800545	2.281700
4137.228000	0.150124	0.183450	19.800545	2.276304
4140.240999	0.150124	0.183133	19.800545	2.264243
4143.346000	0.149807	0.183133	19.800228	2.257896
4146.294000	0.149807	0.183133	19.800545	2.260117
4149.345000	0.149807	0.183133	19.800228	2.260752
4152.345000	0.150124	0.183133	19.800545	2.262339
4155.249000	0.150124	0.183133	19.800545	2.270274
4158.244000	0.149807	0.183133	19.800545	2.270274
4161.228000	0.150124	0.183450	19.800545	2.258213
4164.233000	0.150124	0.183450	19.800228	2.306773
4167.276000	0.149807	0.183133	19.800545	2.269956
4170.315000	0.150124	0.183133	19.800228	2.283921
4173.228000	0.150124	0.183133	19.800545	2.258213
4176.279000	0.149807	0.183450	19.800228	2.258530
4179.230000	0.150124	0.183133	19.800545	2.270274
4182.234000	0.150124	0.183133	19.800545	2.283604
4185.238000	0.149807	0.183133	19.800863	2.274082
4188.251000	0.150124	0.183450	19.800228	2.275669
4191.240000	0.150124	0.183133	19.800545	2.301695
4194.248000	0.150124	0.183133	19.800545	2.290904
4197.286000	0.150124	0.183133	19.800545	2.247739
4200.235000	0.150124	0.183450	19.800545	2.284556
4203.244000	0.150124	0.183133	19.800545	2.279478
4206.269000	0.149807	0.183450	19.800545	2.272496
4209.240000	0.149807	0.183133	19.800545	2.269956
4212.297000	0.150124	0.183450	19.800863	2.285826
4215.327000	0.150124	0.183450	19.800863	2.288682
4218.235000	0.150124	0.183450	19.800545	2.273448
4221.241000	0.149807	0.183133	19.800545	2.258213
4224.233000	0.149807	0.183133	19.800545	2.276304
4227.266000	0.149807	0.183133	19.800863	2.282335
4230.276000	0.149807	0.183133	19.800545	2.256943
4233.312000	0.150124	0.183133	19.800545	2.259483
4236.233000	0.149807	0.183133	19.800545	2.282017
4239.237000	0.150124	0.183450	19.800545	2.268687
4242.233000	0.149807	0.183133	19.800545	2.294078
4245.237999	0.149807	0.183133	19.800545	2.271861
4248.308000	0.149807	0.183133	19.800228	2.270909
4251.238000	0.149807	0.183133	19.800545	2.259483
4254.238000	0.149807	0.183133	19.800545	2.284239
4257.235000	0.149807	0.183133	19.800545	2.308360
4260.235000	0.149807	0.183450	19.800545	2.270274
4263.237000	0.149807	0.183133	19.800863	2.307726
4266.240999	0.149807	0.183133	19.800545	2.272813
4269.251000	0.149807	0.183133	19.800545	2.277574
4272.251000	0.149807	0.183133	19.800545	2.285508
4275.293000	0.149807	0.183133	19.800545	2.295665
4278.254000	0.149807	0.183450	19.800545	2.319151
4281.243000	0.149807	0.183133	19.800545	2.293126
4284.243000	0.149807	0.183133	19.800545	2.270274
4287.256000	0.149807	0.183133	19.800228	2.289952
4290.269001	0.149807	0.183133	19.800545	2.295665
4293.251999	0.149807	0.183133	19.800545	2.272178
4296.239000	0.149807	0.183133	19.800545	2.295665
4299.243000	0.149807	0.183133	19.800228	2.295030
4302.244000	0.150124	0.183133	19.800228	2.296934
4305.249000	0.150124	0.183133	19.800545	2.295030
4308.353000	0.150124	0.183133	19.800545	2.295665
4311.244000	0.149807	0.183133	19.800545	2.295030
4314.266000	0.150124	0.183450	19.799911	2.280748
4317.287000	0.150124	0.183450	19.800228	2.294395
4320.256000	0.150124	0.183133	19.800228	2.258530
4323.242000	0.149807	0.183450	19.800545	2.306456
4326.298000	0.149807	0.183133	19.800228	2.295665
4329.266000	0.149807	0.183133	19.800228	2.308043
4332.270000	0.149807	0.183133	19.800545	2.271861
4335.258000	0.150124	0.183133	19.800228	2.260117
4338.241000	0.149807	0.183133	19.800545	2.320739
4341.242000	0.150124	0.183133	19.800545	2.294078
4344.242000	0.149807	0.183450	19.800545	2.299791
4347.251999	0.149807	0.183133	19.800545	2.270274
4350.260000	0.149807	0.183450	19.800545	2.317247
4353.336999	0.149807	0.183133	19.800228	2.313756
4356.264000	0.150124	0.183133	19.800228	2.330577
4359.257000	0.149807	0.183133	19.800228	2.312169
4362.248000	0.149807	0.183133	19.800228	2.312169
4365.244000	0.149807	0.183450	19.800228	2.295665
4368.253000	0.149807	0.183133	19.800228	2.308678
4371.262000	0.150124	0.183133	19.800228	2.322008
4374.255000	0.149807	0.183133	19.800545	2.270591
4377.258999	0.149807	0.183133	19.800545	2.308043
4380.258999	0.149807	0.183450	19.800545	2.322008
4383.338000	0.149807	0.183133	19.800545	2.321691
4386.250000	0.149807	0.183133	19.800545	2.322008
4389.250000	0.149807	0.183133	19.800228	2.322325
4392.246000	0.149807	0.183133	19.800228	2.308043
4395.250000	0.149807	0.183133	19.800545	2.309947
4398.254000	0.149807	0.183133	19.800228	2.322325
4401.256000	0.149807	0.183450	19.800545	2.316295
4404.263000	0.149807	0.183450	19.800545	2.308360
4407.316000	0.149807	0.183133	19.800545	2.323277
4410.339000	0.149807	0.183450	19.800545	2.298204
4413.261000	0.149807	0.183133	19.800228	2.319151
4416.311000	0.149807	0.183133	19.800545	2.308043
4419.262001	0.149807	0.183133	19.800545	2.309630
4422.266000	0.149807	0.183133	19.800545	2.322325
4425.286000	0.150124	0.183133	19.800545	2.308360
4428.250000	0.149807	0.183133	19.800545	2.321691
4431.254000	0.149807	0.183133	19.800545	2.309630
4434.258000	0.150124	0.183133	19.800545	2.308043
4437.258000	0.150124	0.183133	19.800228	2.314391
4440.254000	0.150124	0.183133	19.800545	2.327086
4443.263000	0.149807	0.183133	19.800545	2.322325
4446.258000	0.149807	0.183133	19.800545	2.333751
4449.346000	0.149807	0.183133	19.800545	2.334386
4452.341000	0.149807	0.183133	19.800228	2.296617
4455.263000	0.149807	0.183133	19.800228	2.308360
4458.264000	0.149807	0.183133	19.800545	2.322325
4461.260000	0.149807	0.183133	19.800545	2.334703
4464.267000	0.149807	0.183133	19.800545	2.308043
4467.265000	0.149807	0.183133	19.800545	2.260117
4470.356000	0.149807	0.183133	19.800228	2.308360
4473.256000	0.149807	0.183133	19.800545	2.308360
4476.256999	0.149807	0.183133	19.800228	2.280113
4479.261000	0.149807	0.183133	19.800545	2.297887
4482.258000	0.150124	0.183133	19.800545	2.295665
4485.253000	0.149807	0.183133	19.800545	2.306139
4488.266000	0.149807	0.183133	19.800545	2.348669
4491.278000	0.149807	0.183133	19.800545	2.310265
4494.253000	0.149807	0.183133	19.800545	2.310265
4497.258000	0.149807	0.183133	19.800545	2.299156
4500.266999	0.150124	0.183133	19.800545	2.308678
4503.354000	0.149807	0.183450	19.800228	2.321056
4506.332000	0.150124	0.183133	19.800545	2.327721
4509.263000	0.149807	0.183450	19.800545	2.334069
4512.325000	0.149807	0.183450	19.800228	2.330895
4515.255000	0.149807	0.183133	19.800228	2.348351
4518.254000	0.149807	0.183450	19.800228	2.308360
4521.259000	0.150124	0.183133	19.800228	2.312486
4524.365000	0.149807	0.183133	19.800228	2.316612
4527.259999	0.150124	0.183133	19.800228	2.346129
4530.255000	0.149807	0.183133	19.799911	2.334069
4533.255000	0.149807	0.183133	19.800228	2.333117
4536.255000	0.149807	0.183133	19.800228	2.346129
4539.261000	0.149807	0.183133	19.800228	2.322960
4542.269000	0.149807	0.183133	19.800545	2.334069
4545.269000	0.150124	0.183133	19.800228	2.333751
4548.265000	0.150124	0.183133	19.800545	2.323912
4551.343999	0.150124	0.183450	19.800545	2.346447
4554.256000	0.150124	0.183133	19.800545	2.340416
4557.263999	0.149807	0.183133	19.800545	2.331212
4560.265000	0.149807	0.183133	19.800545	2.330577
4563.265000	0.149807	0.183133	19.800545	2.334069
4566.266000	0.149807	0.183133	19.800228	2.339147
4569.265000	0.149807	0.183133	19.800545	2.342003
4572.329000	0.149807	0.183133	19.800545	2.338830
4575.258000	0.149807	0.183133	19.800228	2.338512
4578.258999	0.150124	0.183133	19.800545	2.355016
4581.266999	0.149807	0.183133	19.800545	2.358825
4584.258999	0.149807	0.183133	19.800545	2.347399
4587.260000	0.149807	0.183133	19.800228	2.347399
4590.259000	0.149807	0.183133	19.800228	2.359142
4593.334000	0.149807	0.183133	19.800228	2.326452
4596.272000	0.149807	0.183133	19.800545	2.337243
4599.264000	0.149807	0.183133	19.800545	2.348986
4602.268000	0.149807	0.183133	19.800545	2.385168
4605.272000	0.149807	0.183133	19.800545	2.373107
4608.319000	0.149807	0.183133	19.800228	2.360412
4611.274000	0.149807	0.183133	19.800545	2.397229
4614.266000	0.149807	0.183133	19.800545	2.383264
4617.270000	0.149807	0.183133	19.800228	2.382312
4620.324000	0.149807	0.183133	19.800545	2.372790
4623.262000	0.149807	0.183133	19.800545	2.350890
4626.266000	0.149807	0.183133	19.800545	2.358508
4629.266000	0.149807	0.183133	19.800545	2.335973
4632.276000	0.149807	0.183133	19.800545	2.334069
4635.289000	0.149807	0.183133	19.800545	2.348034
4638.270999	0.149807	0.183133	19.800545	2.339782
4641.277000	0.149807	0.183133	19.800228	2.346764
4644.372000	0.149807	0.183133	19.800545	2.370251
4647.263000	0.149807	0.183133	19.800545	2.359142
4650.272000	0.149807	0.183133	19.800545	2.389611
4653.280000	0.149807	0.183133	19.800228	2.359460
4656.263999	0.149807	0.183133	19.800545	2.359460
4659.273000	0.149807	0.183450	19.800545	2.359460
4662.332000	0.149807	0.183133	19.800545	2.334069
4665.264000	0.149807	0.183133	19.800545	2.334069
4668.264000	0.149807	0.183133	19.800228	2.347082
4671.273000	0.149807	0.183133	19.800545	2.359460
4674.273000	0.149807	0.183133	19.800545	2.359460
4677.264000	0.149807	0.183133	19.800545	2.359460
4680.273000	0.149807	0.183133	19.800545	2.359142
4683.273000	0.149807	0.183133	19.800228	2.359460
4686.277000	0.149807	0.183133	19.800545	2.353429
4689.345000	0.149807	0.183133	19.800545	2.364221
4692.268000	0.150124	0.183133	19.800228	2.382312
4695.264000	0.150124	0.183133	19.800545	2.369934
4698.286000	0.150124	0.183133	19.800545	2.379455
4701.273000	0.149807	0.183133	19.800545	2.381360
4704.269000	0.149807	0.183133	19.800545	2.383581
4707.277000	0.149807	0.183133	19.800228	2.359460
4710.273000	0.149807	0.183133	19.800545	2.359460
4713.296999	0.149807	0.183133	19.800545	2.359142
4716.270000	0.150124	0.183133	19.800228	2.364855
4719.267000	0.149807	0.183133	19.800228	2.377551
4722.279000	0.149807	0.183133	19.800545	2.388342
4725.333000	0.149807	0.183133	19.800545	2.350890
4728.275000	0.150124	0.183133	19.800545	2.389294
4731.266000	0.150124	0.183133	19.800545	2.375964
4734.282000	0.149807	0.183133	19.800545	2.385168
4737.270000	0.150124	0.183133	19.800545	2.383581
4740.266000	0.150124	0.183133	19.800545	2.359460
4743.282000	0.149807	0.183133	19.800545	2.337243
4746.279000	0.150124	0.183450	19.800545	2.359460
4749.270000	0.150124	0.183133	19.800228	2.361047
4752.291000	0.150124	0.183133	19.800228	2.348034
4755.375000	0.149807	0.183133	19.800545	2.334069
4758.267000	0.149807	0.183450	19.800228	2.384851
4761.266000	0.150124	0.183133	19.800545	2.324864
4764.279000	0.150124	0.183133	19.800545	2.355016
4767.270000	0.150124	0.183450	19.800545	2.359460
4770.312000	0.149807	0.183133	19.800545	2.372790
4773.291000	0.150124	0.183133	19.800228	2.338195
4776.331000	0.149807	0.183133	19.800545	2.359460
4779.271000	0.149807	0.183133	19.800545	2.336608
4782.267000	0.149807	0.183133	19.800545	2.371521
4785.287000	0.149807	0.183133	19.800863	2.381360
4788.266999	0.149807	0.183133	19.800545	2.368664
4791.296999	0.149807	0.183133	19.800545	2.385168
4794.338000	0.150124	0.183133	19.800228	2.347399
4797.281000	0.149807	0.183133	19.800545	2.358825
4800.269000	0.149807	0.183133	19.800228	2.334703
4803.268000	0.149807	0.183133	19.800228	2.397229
4806.270000	0.150124	0.183133	19.800228	2.384851
4809.277000	0.150124	0.183133	19.800545	2.384851
4812.270000	0.150124	0.183133	19.800228	2.372473
4815.303000	0.149807	0.183450	19.800228	2.360412
4818.373000	0.149807	0.183133	19.800545	2.363268
4821.283000	0.149807	0.183133	19.800228	2.362951
4824.345000	0.149807	0.183133	19.800545	2.385486
4827.303000	0.149807	0.183133	19.800228	2.392151
4830.270000	0.149807	0.183133	19.800228	2.373425
4833.283000	0.149807	0.183133	19.800545	2.372155
4836.291000	0.149807	0.183133	19.800228	2.362634
4839.273999	0.149807	0.183133	19.800228	2.375012
4842.287000	0.149807	0.183133	19.800228	2.354382
4845.336000	0.149807	0.183133	19.800228	2.340099
4848.270000	0.150124	0.183133	19.800228	2.366125
4851.349000	0.149807	0.183133	19.800228	2.369299
4854.276000	0.150124	0.183133	19.800228	2.385168
4857.284000	0.149807	0.183133	19.800545	2.380725
4860.276000	0.149807	0.183133	19.800228	2.385486
4863.272000	0.149807	0.183133	19.800228	2.380407
4866.272000	0.149807	0.183133	19.800545	2.376281
4869.334000	0.149807	0.183133	19.800228	2.383581
4872.364000	0.149807	0.183133	19.800228	2.385168
4875.281000	0.149807	0.183133	19.800545	2.363903
4878.369000	0.149807	0.183133	19.800545	2.397229
4881.278000	0.149807	0.183133	19.800228	2.410242
4884.278000	0.150124	0.183133	19.800228	2.373107
4887.282000	0.149807	0.183133	19.799911	2.372790
4890.273999	0.149807	0.183133	19.800228	2.386438
4893.273999	0.149807	0.183133	19.800228	2.385486
4896.341000	0.149807	0.183133	19.800228	2.385486
4899.291000	0.149807	0.183133	19.800545	2.375964
4902.289000	0.149807	0.183133	19.800545	2.372155
4905.321000	0.149807	0.183133	19.800228	2.392786
4908.277000	0.149807	0.183133	19.800228	2.372473
4911.302000	0.149807	0.183133	19.800228	2.384533
4914.277000	0.149807	0.183133	19.800228	2.397229
4917.286000	0.149807	0.183133	19.800228	2.393103
4920.388000	0.150124	0.183133	19.800228	2.394055
4923.334000	0.149807	0.183133	19.799911	2.396911
4926.278000	0.149807	0.183133	19.800228	2.372790
4929.328000	0.150124	0.183133	19.800228	2.372790
4932.291000	0.149807	0.183133	19.800228	2.396911
4935.325000	0.149807	0.183133	19.800545	2.396911
4938.283000	0.150124	0.183133	19.800545	2.397229
4941.284999	0.149807	0.183133	19.800228	2.422937
4944.296000	0.149807	0.183133	19.800228	2.396911
4947.284999	0.149807	0.183133	19.800228	2.386755
4950.298000	0.150124	0.183133	19.800228	2.386755
4953.291000	0.149807	0.183133	19.800228	2.395324
4956.389000	0.149807	0.183133	19.800228	2.387390
4959.344000	0.150124	0.183133	19.800545	2.387390
4962.386000	0.149807	0.183133	19.800228	2.375964
4965.287000	0.149807	0.183133	19.800228	2.387390
4968.311999	0.149807	0.183133	19.800545	2.397229
4971.291000	0.150124	0.183133	19.800545	2.397229
4974.296000	0.149807	0.183133	19.800545	2.406750
4977.291000	0.149807	0.183133	19.800545	2.397546
4980.286000	0.149807	0.183133	19.800545	2.424524
4983.283000	0.150124	0.183133	19.800545	2.412463
4986.387000	0.149807	0.183133	19.800228	2.410559
4989.283000	0.150124	0.183133	19.800545	2.410559
4992.296999	0.149807	0.183133	19.800228	2.422302
4995.296000	0.149807	0.183133	19.800545	2.401672
4998.287000	0.149807	0.183133	19.800545	2.437855
5001.288000	0.149807	0.183133	19.800228	2.423255
5004.298000	0.150124	0.183133	19.800228	2.388342
5007.293000	0.149807	0.183133	19.800228	2.424524
5010.293000	0.149807	0.183133	19.800545	2.410242
5013.359000	0.149807	0.183133	19.800545	2.423255
5016.289000	0.149807	0.183133	19.800228	2.424524
5019.296999	0.150124	0.183133	19.800228	2.433728
5022.289000	0.149807	0.183133	19.800545	2.398499
5025.284999	0.149807	0.183133	19.800228	2.397229
5028.299000	0.149807	0.183133	19.800228	2.424207
5031.287000	0.150124	0.183133	19.800228	2.436268
5034.296000	0.149807	0.183133	19.800228	2.424207
5037.287000	0.149807	0.183133	19.800228	2.424524
5040.287000	0.149807	0.183133	19.800545	2.423572
5043.296000	0.149807	0.183133	19.800228	2.423572
5046.292000	0.149807	0.183133	19.800228	2.423572
5049.299999	0.149807	0.183133	19.800545	2.429285
5052.288000	0.149807	0.183133	19.800545	2.434998
5055.288000	0.149807	0.183133	19.800545	2.460389
5058.296000	0.149807	0.183133	19.800228	2.423255
5061.371000	0.149807	0.183133	19.800228	2.424842
5064.302000	0.149807	0.183133	19.800228	2.424842
5067.288001	0.149807	0.183133	19.800228	2.449281
5070.383000	0.149807	0.183133	19.800228	2.436268
5073.379000	0.150124	0.183133	19.800545	2.423255
5076.303000	0.149807	0.183133	19.800545	2.449915
5079.303000	0.149807	0.183133	19.800545	2.424842
5082.299000	0.150124	0.183133	19.800545	2.441346
5085.296000	0.149807	0.183133	19.800545	2.461341
5088.296000	0.149807	0.183133	19.800545	2.443250
5091.296000	0.149807	0.183133	19.800545	2.445472
5094.296000	0.149807	0.183133	19.800545	2.465150
5097.292999	0.150124	0.183133	19.800545	2.481971
5100.302000	0.149807	0.183133	19.800545	2.456580
5103.306000	0.149807	0.183133	19.800228	2.442615
5106.303000	0.149807	0.183133	19.800228	2.424207
5109.303000	0.149807	0.183133	19.800228	2.436902
5112.303000	0.149807	0.183133	19.800545	2.460706
5115.299000	0.149807	0.183133	19.800545	2.448646
5118.311000	0.149807	0.183133	19.800545	2.498158
5121.376000	0.149807	0.183133	19.800228	2.460706
5124.306999	0.149807	0.183133	19.800545	2.461341
5127.294000	0.150124	0.183133	19.800228	2.461658
5130.319000	0.149807	0.183133	19.800545	2.461341
5133.349000	0.149807	0.183133	19.800545	2.456898
5136.308000	0.150124	0.183133	19.800545	2.438489
5139.310000	0.149807	0.183133	19.800228	2.440711
5142.311000	0.149807	0.183133	19.800545	2.455311
5145.325000	0.149807	0.183133	19.800228	2.453407
5148.310999	0.149807	0.183133	19.800545	2.440394
5151.303999	0.149807	0.183133	19.800545	2.451185
5154.305000	0.149807	0.183133	19.800228	2.455628
5157.300000	0.149807	0.183133	19.800228	2.449281
5160.388000	0.149807	0.183133	19.800228	2.448963
5163.309000	0.149807	0.183133	19.800228	2.448646
5166.313000	0.150124	0.183133	19.800228	2.461341
5169.296000	0.149807	0.183133	19.800228	2.461658
5172.297000	0.149807	0.183133	19.800545	2.459120
5175.313000	0.149807	0.183133	19.800545	2.461341
5178.322999	0.149807	0.183133	19.800228	2.461658
5181.306000	0.149807	0.183133	19.800228	2.447694
5184.339000	0.149807	0.183133	19.800228	2.461658
5187.302000	0.149807	0.183133	19.800228	2.450867
5190.306000	0.149807	0.183133	19.800228	2.461341
5193.301000	0.149807	0.183133	19.800228	2.473402
5196.302000	0.149807	0.183133	19.800545	2.462928
5199.302001	0.149807	0.183133	19.800228	2.461658
5202.298000	0.149807	0.183133	19.800228	2.462928
5205.306000	0.149807	0.183133	19.800228	2.438489
5208.296999	0.149807	0.183133	19.800228	2.434998
5211.306000	0.149807	0.183133	19.800228	2.459437
5214.297000	0.149807	0.183133	19.800228	2.443568
5217.415000	0.149807	0.183133	19.800228	2.449598
5220.298000	0.149807	0.183133	19.800228	2.461658
5223.299000	0.149807	0.183133	19.800228	2.449281
5226.360000	0.149807	0.183133	19.800228	2.475306
5229.320000	0.149807	0.183133	19.800228	2.455311
5232.298000	0.149807	0.183133	19.800228	2.468641
5235.307000	0.149807	0.183133	19.800228	2.461341
5238.298000	0.149807	0.183133	19.799911	2.461341
5241.403000	0.149807	0.183133	19.799911	2.498793
5244.299000	0.150124	0.183133	19.799911	2.485780
5247.299000	0.149807	0.183133	19.799911	2.463563
5250.300000	0.149807	0.183133	19.800228	2.475941
5253.305000	0.149807	0.183133	19.800228	2.461341
5256.305000	0.149807	0.183133	19.800228	2.461024
5259.397000	0.149807	0.183133	19.799911	2.449598
5262.300000	0.149807	0.183133	19.799911	2.449598
5265.306000	0.149807	0.183133	19.799911	2.470546
5268.318000	0.149807	0.183133	19.799911	2.487367
5271.302000	0.149807	0.183133	19.800228	2.461341
5274.381000	0.149807	0.183133	19.799911	2.453089
5277.406001	0.149807	0.183133	19.799911	2.461658
5280.332999	0.150124	0.183133	19.800228	2.483241
5283.312000	0.149807	0.183133	19.800228	2.495619
5286.313000	0.150124	0.183133	19.799911	2.461658
5289.384000	0.149807	0.183133	19.800228	2.495619
5292.318000	0.149807	0.183133	19.800228	2.461341
5295.308000	0.149807	0.183133	19.800228	2.499110
5298.304000	0.149807	0.183133	19.800228	2.485780
5301.317000	0.149807	0.183133	19.800228	2.461341
5304.375000	0.149807	0.183133	19.800228	2.474037
5307.313000	0.149807	0.183133	19.800228	2.449598
5310.312000	0.149807	0.183133	19.799911	2.462928
5313.322000	0.149807	0.183133	19.800228	2.474037
5316.313000	0.149807	0.183133	19.799911	2.499110
5319.314000	0.149807	0.183133	19.799911	2.472450
5322.315000	0.149807	0.183133	19.799911	2.488954
5325.310000	0.149807	0.183133	19.800228	2.501649
5328.310000	0.149807	0.183133	19.800228	2.494984
5331.306000	0.149807	0.183133	19.799911	2.468006
5334.319000	0.149807	0.183133	19.799911	2.497206
5337.326000	0.149807	0.183133	19.799911	2.486732
5340.310000	0.149807	0.183133	19.799911	2.497206
5343.394000	0.149807	0.183133	19.799911	2.479115
5346.390000	0.149807	0.183133	19.799911	2.486732
5349.321000	0.149807	0.183133	19.799911	2.498793
5352.346000	0.149807	0.183133	19.799911	2.499428
5355.321001	0.149807	0.183133	19.799911	2.499428
5358.317000	0.149807	0.183133	19.799911	2.499110
5361.317000	0.149807	0.183133	19.799276	2.461658
5364.421000	0.149807	0.183133	19.799276	2.486097
5367.316000	0.149807	0.183133	19.799276	2.498793
5370.329000	0.149807	0.183133	19.799911	2.499110
5373.323000	0.149807	0.183133	19.799911	2.499428
5376.309000	0.149807	0.183133	19.799911	2.499428
5379.318000	0.149807	0.183133	19.799911	2.475941
5382.309000	0.149807	0.183133	19.799276	2.497841
5385.309000	0.149807	0.183133	19.799911	2.510854
5388.309000	0.149807	0.183133	19.799276	2.501015
5391.313000	0.149807	0.183133	19.799911	2.485463
5394.384000	0.149807	0.183133	19.799911	2.485463
5397.309000	0.149807	0.183133	19.799911	2.501967
5400.310000	0.149807	0.183133	19.799911	2.502602
5403.310000	0.149807	0.183133	19.799911	2.502919
5406.310000	0.149807	0.183133	19.799911	2.502919
5409.322000	0.149807	0.183133	19.800228	2.503236
5412.317999	0.149807	0.183133	19.800228	2.499428
5415.309000	0.149807	0.183133	19.800228	2.495619
5418.343000	0.149807	0.183133	19.800228	2.503236
5421.331000	0.149807	0.183133	19.799911	2.507680
5424.318000	0.149807	0.183133	19.800228	2.499428
5427.375000	0.149807	0.183133	19.800228	2.514980
5430.319000	0.149807	0.183133	19.800228	2.488636
5433.311000	0.149807	0.183133	19.799911	2.523232
5436.315000	0.149807	0.183133	19.800228	2.477211
5439.310000	0.149807	0.183133	19.800228	2.461976
5442.315000	0.149807	0.183133	19.800228	2.523549
5445.320000	0.149807	0.183133	19.800228	2.549258
5448.375000	0.149807	0.183133	19.799911	2.536880
5451.325000	0.149807	0.183133	19.799911	2.489589
5454.317000	0.149807	0.183133	19.800228	2.537832
5457.321001	0.149807	0.183133	19.800228	2.515615
5460.377999	0.149807	0.183133	19.799911	2.504189
5463.313000	0.149807	0.183133	19.799911	2.537514
5466.406000	0.149807	0.183133	19.799276	2.526723
5469.317000	0.149807	0.183133	19.799911	2.518154
5472.329000	0.149807	0.183133	19.799911	2.517519
5475.373000	0.149807	0.183133	19.799911	2.517201
5478.313000	0.149807	0.183133	19.799911	2.501649
5481.317000	0.149807	0.183133	19.799911	2.537832
5484.318000	0.149807	0.183133	19.799911	2.513710
5487.393000	0.149807	0.183133	19.799911	2.549892
5490.329000	0.149807	0.183133	19.799911	2.535927
5493.313000	0.149807	0.183133	19.800228	2.550210
5496.317000	0.149807	0.183133	19.799911	2.535927
5499.368000	0.149807	0.183133	19.800228	2.550210
5502.372000	0.149807	0.183133	19.799911	2.502602
5505.313000	0.149807	0.183133	19.799911	2.547671
5508.327000	0.150124	0.183133	19.799911	2.537514
5511.384999	0.149807	0.183133	19.799911	2.556875
5514.317999	0.149807	0.183133	19.799911	2.557192
5517.315000	0.149807	0.183133	19.799911	2.512123
5520.314000	0.149807	0.183133	19.799911	2.523232
5523.314000	0.149807	0.183133	19.799911	2.502602
5526.318000	0.149807	0.183133	19.799911	2.551162
5529.319000	0.149807	0.183133	19.799911	2.538149
5532.331000	0.149807	0.183133	19.799911	2.537514
5535.401000	0.149807	0.183133	19.799911	2.537832
5538.318999	0.149807	0.183133	19.799911	2.550844
5541.329999	0.149807	0.183133	19.799911	2.513075
5544.317999	0.149807	0.183133	19.799911	2.525454
5547.329999	0.149807	0.183133	19.799911	2.537832
5550.330000	0.149807	0.183133	19.799276	2.512123
5553.315000	0.149807	0.183133	19.799911	2.537514
5556.317000	0.149807	0.183133	19.799276	2.517836
5559.320000	0.149807	0.183133	19.799911	2.549258
5562.316000	0.149807	0.183133	19.799911	2.501015
5565.329000	0.149807	0.183133	19.799911	2.512123
5568.325000	0.149807	0.183133	19.799911	2.513075
5571.320000	0.149807	0.183133	19.799276	2.533388
5574.320000	0.149807	0.183133	19.799911	2.501015
5577.411000	0.149807	0.183133	19.799911	2.501015
5580.316000	0.149807	0.183133	19.799911	2.489271
5583.320000	0.149807	0.183133	19.799911	2.499745
5586.316000	0.149807	0.183133	19.799911	2.513393
5589.336999	0.149807	0.183133	19.799911	2.525136
5592.324000	0.149807	0.183133	19.799911	2.533071
5595.329000	0.149807	0.183133	19.799911	2.514662
5598.324000	0.149807	0.183133	19.799276	2.509902
5601.325000	0.149807	0.183133	19.799911	2.504823
5604.325000	0.149807	0.183133	19.799276	2.537832
5607.317000	0.149807	0.183133	19.799911	2.537514
5610.326000	0.149807	0.183133	19.799911	2.499428
5613.388000	0.149807	0.183133	19.799911	2.499428
5616.321000	0.149807	0.183133	19.799911	2.512123
5619.322999	0.149807	0.183133	19.799911	2.525136
5622.327000	0.149807	0.183133	19.799911	2.537832
5625.322000	0.149807	0.183133	19.799276	2.536245
5628.322000	0.149807	0.183133	19.799911	2.536880
5631.392000	0.149807	0.183133	19.799911	2.549892
5634.334000	0.149807	0.183133	19.799911	2.538149
5637.368000	0.149807	0.183133	19.800228	2.543227
5640.418000	0.149807	0.183133	19.800228	2.522914
5643.322000	0.149807	0.183133	19.799911	2.537832
5646.343000	0.149807	0.183133	19.800228	2.537514
5649.317999	0.149807	0.183133	19.799911	2.522280
5652.331000	0.149807	0.183133	19.799911	2.553701
5655.327000	0.149807	0.183133	19.799911	2.513075
5658.343000	0.149807	0.183133	19.799911	2.521327
5661.327000	0.149807	0.183133	19.800228	2.537832
5664.327000	0.149807	0.183133	19.799911	2.574014
5667.330999	0.149807	0.183133	19.799911	2.513710
5670.331000	0.149807	0.183133	19.799911	2.513710
5673.327000	0.149807	0.182498	19.799911	2.499745
5676.322999	0.149807	0.183133	19.799276	2.537832
5679.322000	0.149807	0.183133	19.799911	2.537197
5682.323000	0.149807	0.183133	19.799911	2.549575
5685.327000	0.149807	0.183133	19.799911	2.513710
5688.318000	0.149807	0.183133	19.800228	2.537514
5691.431000	0.149807	0.183133	19.799911	2.527358
5694.376999	0.149807	0.183133	19.799911	2.537832
5697.335000	0.149807	0.183133	19.799911	2.535292
5700.328000	0.149807	0.183133	19.799911	2.513075
5703.324000	0.149807	0.183133	19.799911	2.564175
5706.327000	0.149807	0.183133	19.799911	2.525136
5709.332000	0.149807	0.183133	19.800228	2.515297
5712.366000	0.149807	0.183133	19.800228	2.537514
5715.329000	0.149807	0.183133	19.800228	2.537514
5718.345000	0.149807	0.183133	19.800228	2.561636
5721.395999	0.149807	0.183133	19.799911	2.525136
5724.325000	0.149807	0.183133	19.799911	2.537832
5727.329999	0.149807	0.182498	19.799911	2.537514
5730.322000	0.149807	0.183133	19.799911	2.537832
5733.330000	0.149807	0.183133	19.799911	2.537197
5736.322000	0.149807	0.183133	19.799911	2.536245
5739.347000	0.149807	0.183133	19.799911	2.525136
5742.322000	0.149807	0.183133	19.799911	2.547671
5745.337999	0.149807	0.183133	19.800228	2.537514
5748.327000	0.149807	0.183133	19.800228	2.526088
5751.322999	0.149807	0.183133	19.799911	2.574014
5754.350999	0.149807	0.183133	19.800228	2.574331
5757.332000	0.149807	0.183133	19.800228	2.550844
5760.336000	0.149807	0.183133	19.799911	2.585122
5763.335000	0.149807	0.183133	19.800228	2.530849
5766.417000	0.149807	0.183133	19.799911	2.536245
5769.322000	0.149807	0.183133	19.800228	2.527358
5772.431000	0.149807	0.183133	19.800228	2.561953
5775.322000	0.149807	0.183133	19.799911	2.562270
5778.322000	0.149807	0.183133	19.799911	2.589566
5781.332000	0.149807	0.182498	19.799911	2.575601
5784.339000	0.149807	0.183133	19.800228	2.550844
5787.332000	0.149807	0.183133	19.799911	2.557510
5790.344000	0.149807	0.183133	19.799911	2.545131
5793.423000	0.149807	0.183133	19.799911	2.587979
5796.327000	0.149807	0.183133	19.799911	2.586392
5799.410999	0.149807	0.183133	19.799911	2.549892
5802.427000	0.149807	0.183133	19.799911	2.552114
5805.402999	0.149490	0.183133	19.799911	2.551797
5808.395000	0.149807	0.183133	19.799911	2.551162
5811.337000	0.149807	0.183133	19.799911	2.561636
5814.325000	0.149807	0.183133	19.799911	2.576553
5817.350000	0.149807	0.183133	19.799911	2.577188
5820.330000	0.149807	0.183133	19.799276	2.569888
5823.330999	0.149807	0.183133	19.799911	2.537514
5826.381999	0.149807	0.183133	19.799911	2.569570
5829.355999	0.149807	0.183133	19.799911	2.566079
5832.418000	0.149807	0.183133	19.799911	2.534340
5835.343999	0.149807	0.183133	19.800228	2.525136
5838.328000	0.149807	0.183133	19.799911	2.576553
5841.348000	0.149807	0.183133	19.799911	2.559097
5844.328000	0.149807	0.183133	19.799911	2.570523
5847.348000	0.149807	0.183133	19.799911	2.562905
5850.370999	0.149807	0.183133	19.799911	2.576553
5853.364000	0.149807	0.183133	19.799911	2.551797
5856.336000	0.149807	0.183133	19.799276	2.576553
5859.341000	0.149807	0.182498	19.799911	2.576553
5862.349000	0.149490	0.183133	19.799276	2.551162
5865.341000	0.149807	0.183133	19.799911	2.550844
5868.349000	0.149807	0.183133	19.799911	2.550844
5871.337000	0.149490	0.183133	19.799911	2.551797
5874.333000	0.149490	0.183133	19.799911	2.576553
5877.336000	0.149807	0.183133	19.799911	2.551797
5880.346000	0.149807	0.183133	19.799911	2.587027
5883.336999	0.149807	0.183133	19.799911	2.576553
5886.349000	0.149490	0.183133	19.799276	2.575283
5889.341000	0.149807	0.183133	19.799911	2.549575
5892.333000	0.149807	0.183133	19.799911	2.576553
5895.336000	0.149807	0.183133	19.799911	2.576553
5898.391000	0.149490	0.183133	19.799276	2.570523
5901.400000	0.149807	0.183133	19.799911	2.557827
5904.336000	0.149807	0.183133	19.799911	2.576236
5907.390000	0.149807	0.182498	19.799276	2.550844
5910.394000	0.149807	0.182498	19.799276	2.576553
5913.332000	0.149490	0.183133	19.799276	2.550844
5916.337000	0.149490	0.183133	19.799276	2.557192
5919.367000	0.149490	0.183133	19.799911	2.557192
5922.362000	0.149807	0.183133	19.799911	2.582583
5925.337000	0.149807	0.183133	19.799911	2.577822
5928.342000	0.149807	0.183133	19.799276	2.599722
5931.334000	0.149807	0.183133	19.799911	2.587662
5934.336999	0.149807	0.183133	19.799911	2.563857
5937.338000	0.149807	0.183133	19.799911	2.576553
5940.346000	0.149807	0.183133	19.799911	2.576553
5943.334000	0.149807	0.182498	19.799911	2.576553
5946.339000	0.149490	0.183133	19.799911	2.563540
5949.354000	0.149807	0.183133	19.799911	2.550210
5952.359000	0.149807	0.183133	19.799911	2.585757
5955.338000	0.149807	0.183133	19.799911	2.560366
5958.350999	0.149807	0.183133	19.799911	2.579409
5961.338000	0.149807	0.183133	19.799911	2.579092
5964.359000	0.149807	0.183133	19.799911	2.579092
5967.343000	0.149807	0.183133	19.799911	2.571475
5970.347000	0.149490	0.183133	19.799911	2.578457
5973.343000	0.149807	0.183133	19.799911	2.578457
5976.408000	0.149807	0.183133	19.799276	2.586075
5979.343000	0.149807	0.183133	19.799911	2.588614
5982.347000	0.149490	0.182498	19.799911	2.577822
5985.338000	0.149807	0.183133	19.799911	2.578140
5988.338000	0.149807	0.183133	19.799911	2.576553
5991.342000	0.149490	0.183133	19.799276	2.576553
5994.348000	0.149807	0.183133	19.799276	2.565444
5997.339000	0.149807	0.183133	19.799911	2.585757
6000.344000	0.149807	0.182498	19.799911	2.614322
6003.452000	0.149807	0.183133	19.799276	2.594644
6006.335000	0.149807	0.183133	19.799276	2.587344
6009.339000	0.149490	0.183133	19.799276	2.551479
6012.335000	0.149490	0.183133	19.799911	2.580362
6015.343999	0.149807	0.183133	19.799911	2.574966
6018.418000	0.149807	0.183133	19.799276	2.587662
6021.335000	0.149807	0.183133	19.799276	2.577505
6024.335000	0.149807	0.183133	19.799276	2.625748
6027.353000	0.149807	0.183133	19.799276	2.579727
6030.349000	0.149807	0.183133	19.799911	2.623844
6033.355999	0.149807	0.183133	19.799911	2.587344
6036.402000	0.149807	0.182498	19.799911	2.594326
6039.395000	0.149807	0.183133	19.799911	2.594326
6042.345000	0.150124	0.183133	19.799911	2.609879
6045.345000	0.149807	0.183133	19.799276	2.593692
6048.340000	0.149807	0.183133	19.799911	2.620035
6051.336000	0.149807	0.183133	19.799276	2.612418
6054.340000	0.149807	0.183133	19.799276	2.599405
6057.339999	0.149807	0.183133	19.799911	2.578140
6060.336000	0.149807	0.183133	19.799911	2.589883
6063.444000	0.149490	0.182498	19.799276	2.588296
6066.350000	0.149807	0.182498	19.798958	2.577188
6069.362000	0.149807	0.182498	19.799276	2.589566
6072.346000	0.149807	0.182498	19.799276	2.587979
6075.338000	0.149490	0.183133	19.799276	2.625431
6078.337000	0.149807	0.183133	19.799276	2.625431
6081.371000	0.149490	0.183133	19.799276	2.577188
6084.337999	0.149807	0.182498	19.799276	2.624796
6087.339999	0.149490	0.183133	19.799911	2.583535
6090.352000	0.149490	0.183133	19.799276	2.620035
6093.343999	0.149490	0.183133	19.799276	2.620035
6096.344000	0.149807	0.182498	19.799276	2.596231
6099.349000	0.149490	0.183133	19.799276	2.578140
6102.349000	0.149807	0.183133	19.799911	2.589883
6105.350000	0.149807	0.182498	19.799276	2.599722
6108.343000	0.149807	0.183133	19.799911	2.562905
6111.343000	0.149807	0.183133	19.799276	2.592422
6114.347000	0.149807	0.183133	19.799911	2.619400
6117.350000	0.149490	0.183133	19.799276	2.612735
6120.359000	0.149807	0.183133	19.799276	2.619718
6123.342000	0.149807	0.182498	19.799276	2.620670
6126.405000	0.149807	0.182498	19.799276	2.583218
6129.348000	0.149490	0.183133	19.799276	2.606387
6132.347001	0.149807	0.183133	19.799276	2.627335
6135.429999	0.149490	0.183133	19.799276	2.626700
6138.343000	0.149807	0.183133	19.799276	2.580996
6141.348000	0.149807	0.183133	19.799911	2.579409
6144.362999	0.149807	0.183133	19.799911	2.614005
6147.348000	0.149807	0.183133	19.799911	2.615909
6150.352000	0.149490	0.183133	19.799911	2.579092
6153.382000	0.149807	0.183133	19.799911	2.624161
6156.357000	0.149807	0.182498	19.799276	2.590201
6159.411000	0.149807	0.182498	19.799276	2.624796
6162.353000	0.149490	0.182498	19.799911	2.636857
6165.365000	0.149807	0.182498	19.799276	2.629874
6168.361000	0.149807	0.183133	19.799911	2.636539
6171.353000	0.149807	0.183133	19.799911	2.588614
6174.357000	0.149807	0.183133	19.799911	2.617813
6177.349000	0.149807	0.182498	19.799276	2.588296
6180.349000	0.149807	0.183133	19.799276	2.623844
6183.344000	0.149807	0.183133	19.799276	2.629239
6186.343999	0.149490	0.183133	19.799276	2.624478
6189.350000	0.149807	0.182498	19.799276	2.577188
6192.350000	0.149807	0.182498	19.799276	2.600357
6195.349000	0.149490	0.183133	19.799911	2.627335
6198.349000	0.149807	0.182498	19.799911	2.601309
6201.366000	0.149490	0.183133	19.799276	2.626700
6204.354000	0.149807	0.183133	19.799276	2.626383
6207.350000	0.149807	0.182498	19.799911	2.626383
6210.358000	0.149490	0.183133	19.799276	2.676847
6213.355000	0.149807	0.182498	19.799911	2.626383
6216.353000	0.149807	0.183133	19.799276	2.675895
6219.358000	0.149490	0.183133	19.799911	2.652091
6222.350000	0.149490	0.183133	19.799911	2.687639
6225.349000	0.149490	0.183133	19.799911	2.646378
6228.355000	0.149490	0.183133	19.799911	2.661930
6231.351000	0.149807	0.183133	19.799276	2.665739
6234.356000	0.149807	0.182498	19.799276	2.662248
6237.361000	0.149807	0.183133	19.799911	2.676847
6240.395000	0.149807	0.183133	19.799276	2.676847
6243.365000	0.149807	0.183133	19.799276	2.677482
6246.353000	0.149807	0.183133	19.799276	2.687004
6249.348000	0.149807	0.182498	19.799276	2.671769
6252.353000	0.149490	0.183133	19.799911	2.652409
6255.349000	0.149807	0.182498	19.799911	2.672721
6258.361000	0.149807	0.182498	19.799911	2.639713
6261.377000	0.149807	0.183133	19.799276	2.652091
6264.353000	0.149490	0.183133	19.799276	2.652409
6267.350000	0.149807	0.182498	19.799276	2.678117
6270.453000	0.149490	0.183133	19.799911	2.666056
6273.424000	0.149490	0.183133	19.799276	2.626383
6276.371000	0.149490	0.182498	19.799276	2.626700
6279.351000	0.149490	0.183133	19.799276	2.639396
6282.364000	0.149807	0.183133	19.799276	2.664787
6285.460000	0.149807	0.183133	19.799276	2.664787
6288.356000	0.149490	0.183133	19.799276	2.703191
6291.351999	0.149490	0.183133	19.799276	2.664787
6294.380000	0.149490	0.182498	19.799276	2.668278
6297.364000	0.149490	0.183133	19.799911	2.674626
6300.355000	0.149807	0.183133	19.799276	2.700334
6303.352000	0.149807	0.182498	19.799911	2.636539
6306.376000	0.149807	0.183133	19.799276	2.658756
6309.356000	0.149807	0.183133	19.799276	2.680021
6312.356000	0.149490	0.182498	19.799276	2.684465
6315.361000	0.149807	0.183133	19.799276	2.694938
6318.361000	0.149490	0.183133	19.799911	2.659708
6321.354000	0.149807	0.182498	19.799911	2.665421
6324.367000	0.149807	0.182498	19.799276	2.689543
6327.371000	0.149490	0.183133	19.799276	2.640030
6330.359000	0.149490	0.183133	19.799276	2.665421
6333.354000	0.149490	0.183133	19.799911	2.653361
6336.367000	0.149807	0.182498	19.799911	2.702873
6339.363000	0.149490	0.183133	19.799276	2.702873
6342.471000	0.149807	0.183133	19.799276	2.702556
6345.362999	0.149807	0.183133	19.799911	2.665421
6348.450000	0.149490	0.183133	19.799911	2.670817
6351.393000	0.149807	0.183133	19.799911	2.711760
6354.363000	0.149490	0.183133	19.799911	2.646696
6357.383000	0.149807	0.183133	19.799911	2.700017
6360.359000	0.149490	0.182498	19.799276	2.687639
6363.359000	0.149490	0.183133	19.799276	2.652091
6366.367000	0.149807	0.182498	19.799911	2.629239
6369.362999	0.149490	0.183133	19.799276	2.669548
6372.362999	0.149490	0.182498	19.799276	2.669548
6375.358000	0.149490	0.183133	19.799911	2.641300
6378.362999	0.149807	0.182498	19.799911	2.687956
6381.414000	0.149807	0.183133	19.799911	2.693034
6384.380000	0.149807	0.183133	19.799276	2.705730
6387.367000	0.149490	0.182498	19.799911	2.691130
6390.359000	0.149490	0.183133	19.799911	2.695891
6393.368000	0.149490	0.182498	19.799276	2.683830
6396.464000	0.149490	0.182498	19.799911	2.690178
6399.362999	0.149807	0.182498	19.799276	2.692399
6402.459000	0.149807	0.182498	19.799911	2.665421
6405.439000	0.149490	0.182498	19.799276	2.679069
6408.368000	0.149807	0.182498	19.799911	2.689543
6411.355000	0.149490	0.183133	19.799276	2.705730
6414.364000	0.149807	0.183133	19.799911	2.691130
6417.369000	0.149807	0.182498	19.799276	2.727312
6420.355999	0.149490	0.183133	19.799911	2.740008
6423.365000	0.149490	0.183133	19.799276	2.679704
6426.357000	0.149490	0.182498	19.799911	2.739055
6429.361000	0.149490	0.183133	19.799911	2.684782
6432.426000	0.149807	0.183133	19.799911	2.693986
6435.452000	0.149490	0.182498	19.799911	2.727947
6438.439000	0.149807	0.183133	19.800228	2.688591
6441.360000	0.149807	0.183133	19.800228	2.696525
6444.360000	0.149807	0.183133	19.799911	2.722869
6447.360000	0.149807	0.182498	19.799911	2.696843
6450.364000	0.149807	0.183133	19.799911	2.697160
6453.365000	0.149807	0.183133	19.799911	2.740960
6456.369000	0.149807	0.183133	19.799911	2.740960
6459.445000	0.149807	0.183133	19.799911	2.702873
6462.373000	0.149807	0.182498	19.799911	2.703825
6465.373000	0.149490	0.182498	19.799911	2.718425
6468.451000	0.149807	0.183133	19.799911	2.740960
6471.356000	0.149807	0.182498	19.800228	2.741277
6474.369000	0.149807	0.182498	19.799911	2.703825
6477.381999	0.149807	0.182498	19.799911	2.703825
6480.369000	0.149490	0.183133	19.799911	2.694621
6483.361000	0.149807	0.183133	19.799911	2.706047
6486.411000	0.149807	0.183133	19.800228	2.727312
6489.356000	0.149490	0.183133	19.799911	2.715251
6492.360000	0.149807	0.182498	19.799911	2.698747
6495.357000	0.149807	0.182498	19.799911	2.674626
6498.357000	0.149807	0.183133	19.800228	2.704143
6501.357000	0.149490	0.182498	19.799911	2.703825
6504.465000	0.149807	0.182498	19.799911	2.703825
6507.362000	0.149807	0.183133	19.799911	2.679069
6510.387000	0.149807	0.183133	19.799911	2.678434
6513.375000	0.149807	0.182498	19.799911	2.679069
6516.367000	0.149807	0.182498	19.799911	2.724773
6519.363000	0.149807	0.182498	19.799276	2.716203
6522.371000	0.149807	0.183133	19.799911	2.724773
6525.370999	0.149807	0.182498	19.799911	2.694938
6528.372000	0.149490	0.183133	19.799911	2.694621
6531.358000	0.149807	0.182498	19.799911	2.678117
6534.362999	0.149807	0.182498	19.799911	2.716203
6537.362000	0.149490	0.183133	19.799911	2.703825
6540.367000	0.149807	0.183133	19.799911	2.691130
6543.380000	0.149807	0.183133	19.799911	2.681926
6546.400000	0.149807	0.182498	19.799911	2.703825
6549.367000	0.149807	0.182498	19.799911	2.681926
6552.387000	0.149490	0.183133	19.799276	2.716521
6555.424000	0.149807	0.183133	19.799911	2.694621
6558.359000	0.149807	0.183133	19.799911	2.697795
6561.359000	0.149490	0.183133	19.799911	2.702556
6564.360000	0.149807	0.183133	19.799911	2.710173
6567.359000	0.149490	0.183133	19.799911	2.704143
6570.373000	0.149490	0.183133	19.799911	2.711125
6573.420000	0.149807	0.183133	19.799911	2.722869
6576.450999	0.149490	0.183133	19.799911	2.710808
6579.365000	0.149807	0.182498	19.799276	2.711125
6582.361000	0.149490	0.182498	19.799911	2.710490
6585.365000	0.149807	0.183133	19.799911	2.715251
6588.461000	0.149490	0.182498	19.799911	2.719060
6591.378000	0.149807	0.182498	19.799276	2.704460
6594.361000	0.149807	0.183133	19.799911	2.717790
6597.366000	0.149807	0.182498	19.799276	2.741277
6600.420000	0.149807	0.182498	19.799911	2.718425
6603.362000	0.149807	0.183133	19.799911	2.728582
6606.390000	0.149807	0.182498	19.799911	2.704460
6609.374000	0.149807	0.183133	19.799911	2.740642
6612.460000	0.149807	0.182498	19.799911	2.724456
6615.382000	0.149490	0.183133	19.799911	2.716838
6618.366000	0.149807	0.182498	19.799911	2.713664
6621.365000	0.149490	0.182498	19.800228	2.717790
6624.366000	0.149807	0.182498	19.800228	2.713982
6627.361001	0.149490	0.183133	19.800228	2.707951
6630.374000	0.149807	0.182498	19.800228	2.707634
6633.361000	0.149807	0.183133	19.799911	2.713664
6636.427000	0.149490	0.182498	19.799911	2.726360
6639.365000	0.149490	0.183133	19.799276	2.741277
6642.479000	0.149807	0.183133	19.799911	2.741277
6645.440000	0.149807	0.182498	19.799911	2.704777
6648.432000	0.149807	0.183133	19.799911	2.718108
6651.378000	0.149490	0.182498	19.799911	2.742547
6654.369999	0.149807	0.182498	19.799911	2.704143
6657.369000	0.149490	0.182498	19.799911	2.704777
6660.402999	0.149807	0.183133	19.799911	2.741912
6663.383000	0.149490	0.183133	19.799911	2.716521
6666.465000	0.149807	0.182498	19.799911	2.727312
6669.379000	0.149490	0.183133	19.799911	2.725090
6672.372000	0.149807	0.182498	19.799911	2.731755
6675.377000	0.149807	0.183133	19.799911	2.742547
6678.363000	0.149490	0.183133	19.800228	2.729216
6681.365000	0.149490	0.182498	19.799911	2.720964
6684.368000	0.149807	0.183133	19.799276	2.716838
6687.369000	0.149807	0.183133	19.799911	2.716838
6690.385000	0.149807	0.182498	19.799911	2.741277
6693.365000	0.149807	0.182498	19.799276	2.716838
6696.365000	0.149807	0.182498	19.799911	2.739373
6699.450000	0.149807	0.182498	19.799911	2.744451
6702.371000	0.149807	0.182498	19.799276	2.742864
6705.413001	0.149807	0.183133	19.799276	2.742547
6708.375000	0.149490	0.183133	19.799911	2.729216
6711.375000	0.149490	0.183133	19.799911	2.706682
6714.367000	0.149490	0.182498	19.799911	2.724456
6717.392000	0.149490	0.183133	19.799276	2.717790
6720.381000	0.149490	0.182498	19.799276	2.742864
6723.468000	0.149490	0.183133	19.799276	2.730803
6726.368000	0.149490	0.183133	19.799276	2.715886
6729.373001	0.149490	0.182498	19.799911	2.704777
6732.384999	0.149807	0.182498	19.799911	2.742547
6735.427000	0.149490	0.182498	19.799911	2.742547
6738.386000	0.149490	0.183133	19.799911	2.740642
6741.427000	0.149490	0.182498	19.799911	2.717790
6744.373000	0.149490	0.182498	19.799911	2.742547
6747.369000	0.149490	0.183133	19.799276	2.742547
6750.373000	0.149490	0.182498	19.799911	2.749846
6753.369000	0.149490	0.183133	19.799911	2.742547
6756.407000	0.149490	0.183133	19.799911	2.750164
6759.374000	0.149807	0.183133	19.799911	2.754607
6762.437000	0.149807	0.182498	19.799276	2.742547
6765.428000	0.149490	0.183133	19.799911	2.742547
6768.428999	0.149490	0.182498	19.799911	2.754607
6771.376000	0.149490	0.182498	19.799911	2.754290
6774.389000	0.149490	0.182498	19.799911	2.754925
6777.386000	0.149490	0.183133	19.799911	2.778411
6780.385000	0.149490	0.182498	19.799276	2.742547
6783.401000	0.149490	0.182498	19.799911	2.742547
6786.373000	0.149490	0.182498	19.799911	2.742547
6789.447000	0.149807	0.182498	19.799911	2.742547
6792.385000	0.149490	0.182498	19.799911	2.754290
6795.386000	0.149490	0.182498	19.799911	2.742864
6798.377000	0.149490	0.183133	19.799911	2.742547
6801.387000	0.149490	0.182498	19.799911	2.754925
6804.374000	0.149490	0.182498	19.799911	2.740008
6807.374000	0.149490	0.183133	19.799911	2.742547
6810.377999	0.149490	0.182498	19.799276	2.742547
6813.454000	0.149490	0.183133	19.799276	2.742547
6816.375000	0.149490	0.182498	19.799276	2.752386
6819.387000	0.149807	0.183133	19.799276	2.742864
6822.374000	0.149490	0.183133	19.799276	2.740325
6825.387000	0.149490	0.182498	19.799276	2.754925
6828.455000	0.149490	0.183133	19.799276	2.742864
6831.379000	0.149490	0.182498	19.799276	2.754607
6834.382000	0.149490	0.183133	19.799276	2.742547
6837.376000	0.149490	0.183133	19.799911	2.742864
6840.376000	0.149490	0.182498	19.799911	2.742547
6843.376999	0.149490	0.182498	19.799911	2.754607
6846.376999	0.149490	0.182498	19.799276	2.755242
6849.385000	0.149490	0.182498	19.799911	2.758099
6852.378000	0.149490	0.182498	19.799276	2.753021
6855.380000	0.149490	0.182498	19.799276	2.742864
6858.389000	0.149490	0.182498	19.799276	2.778411
6861.388999	0.149490	0.183133	19.799276	2.742547
6864.400000	0.149490	0.182498	19.799276	2.748894
6867.385000	0.149490	0.182498	19.799276	2.754607
6870.380000	0.149490	0.183133	19.799911	2.754925
6873.381000	0.149490	0.182498	19.799911	2.776824
6876.436000	0.149490	0.182498	19.799911	2.770159
6879.387000	0.149490	0.183133	19.799276	2.754290
6882.383000	0.149490	0.182498	19.799276	2.744451
6885.479000	0.149490	0.183133	19.799276	2.777459
6888.391000	0.149490	0.183133	19.799911	2.752703
6891.441000	0.149490	0.183133	19.799276	2.742547
6894.391000	0.149490	0.182498	19.799911	2.777459
6897.383000	0.149490	0.183133	19.799911	2.779364
6900.478000	0.149807	0.183133	19.799911	2.745086
6903.396000	0.149490	0.182498	19.799911	2.769207
6906.387000	0.149490	0.183133	19.799911	2.779998
6909.391000	0.149490	0.183133	19.799911	2.743816
6912.387001	0.149490	0.182498	19.799911	2.779998
6915.440000	0.149490	0.182498	19.799276	2.755877
6918.387000	0.149490	0.183133	19.799911	2.779998
6921.423000	0.149490	0.183133	19.799911	2.742547
6924.384000	0.149490	0.183133	19.799911	2.754925
6927.384000	0.149490	0.182498	19.799276	2.742547
6930.449000	0.149490	0.182498	19.799276	2.771111
6933.479000	0.149490	0.182498	19.799911	2.784124
6936.392000	0.149807	0.182498	19.799276	2.760638
6939.409000	0.149490	0.182498	19.799911	2.760638
6942.393000	0.149490	0.183133	19.799276	2.776824
6945.388999	0.149490	0.183133	19.799276	2.785077
6948.397000	0.149490	0.183133	19.799911	2.753338
6951.388000	0.149490	0.182498	19.799276	2.749212
6954.412000	0.149490	0.182498	19.799911	2.778411
6957.410000	0.149490	0.183133	19.799911	2.753973
6960.389000	0.149490	0.183133	19.799911	2.754607
6963.389000	0.149490	0.183133	19.799911	2.779998
6966.394000	0.149807	0.182498	19.799276	2.792059
6969.388999	0.149490	0.182498	19.799276	2.779046
6972.402999	0.149490	0.183133	19.799276	2.781585
6975.402999	0.149490	0.182498	19.799276	2.754607
6978.400000	0.149490	0.182498	19.799276	2.805707
6981.392000	0.149490	0.183133	19.799276	2.805072
6984.404000	0.149490	0.182498	19.799276	2.760955
6987.429000	0.149490	0.182498	19.798958	2.779364
6990.396000	0.149490	0.182498	19.799276	2.762859
6993.405000	0.149490	0.183133	19.799276	2.804437
6996.391999	0.149490	0.182498	19.799276	2.794598
6999.395999	0.149490	0.182498	19.799276	2.794598
7002.428999	0.149490	0.182498	19.799276	2.822528
7005.396000	0.149490	0.182498	19.799276	2.784124
7008.421000	0.149490	0.182498	19.799276	2.743181
7011.483000	0.149807	0.183133	19.799276	2.768572
7014.396000	0.149490	0.183133	19.799276	2.753973
7017.391999	0.149490	0.182498	19.799276	2.816815
7020.395999	0.149490	0.182498	19.799276	2.815546
7023.391999	0.149807	0.182498	19.799911	2.804754
7026.505000	0.149490	0.182498	19.799276	2.790790
7029.401000	0.149490	0.182498	19.799276	2.745086
7032.409000	0.149490	0.182498	19.799276	2.767303
7035.393000	0.149490	0.182498	19.799276	2.770794
7038.409000	0.149490	0.182498	19.799276	2.758099
7041.411000	0.149807	0.182498	19.799276	2.742547
7044.398000	0.149807	0.183133	19.799276	2.772698
7047.398999	0.149490	0.182498	19.799276	2.781268
7050.402999	0.149807	0.182498	19.798958	2.797137
7053.407000	0.149490	0.183133	19.798958	2.817133
7056.461000	0.149490	0.183133	19.799276	2.812372
7059.394000	0.149490	0.182498	19.799276	2.799359
7062.403000	0.149490	0.183133	19.799276	2.804754
7065.394000	0.149490	0.182498	19.799276	2.806659
7068.394000	0.149490	0.182498	19.799276	2.817450
7071.403999	0.149490	0.182498	19.799276	2.829828
7074.474000	0.149490	0.182498	19.799276	2.816498
7077.418000	0.149490	0.182498	19.799276	2.769525
7080.401000	0.149490	0.182498	19.799276	2.817133
7083.473000	0.149490	0.182498	19.799911	2.816498
7086.410000	0.149490	0.182498	19.799276	2.780633
7089.431000	0.149490	0.182498	19.799911	2.765081
7092.413000	0.149490	0.182498	19.799276	2.825068
7095.398000	0.149490	0.182498	19.799276	2.785077
7098.406000	0.149490	0.182498	19.799276	2.817450
7101.413000	0.149490	0.182498	19.799276	2.817450
7104.401000	0.149490	0.182498	19.799911	2.784759
7107.397000	0.149490	0.183133	19.799276	2.782220
7110.402000	0.149490	0.182498	19.799911	2.819672
7113.410000	0.149490	0.182498	19.799276	2.817768
7116.471000	0.149490	0.183133	19.799276	2.793011
7119.498001	0.149807	0.182498	19.799276	2.841572
7122.402000	0.149490	0.182498	19.799276	2.805389
7125.401000	0.149490	0.182498	19.799276	2.817450
7128.406000	0.149490	0.183133	19.799276	2.829193
7131.463000	0.149490	0.182498	19.799276	2.817133
7134.406000	0.149490	0.182498	19.799276	2.806342
7137.464000	0.149490	0.182498	19.799276	2.817768
7140.401000	0.149490	0.183133	19.799911	2.830463
7143.409000	0.149490	0.182498	19.799911	2.830463
7146.406001	0.149490	0.182498	19.799911	2.830463
7149.398999	0.149490	0.182498	19.799276	2.817450
7152.486000	0.149490	0.182498	19.799276	2.841889
7155.407000	0.149490	0.182498	19.799911	2.818720
7158.418000	0.149490	0.182498	19.799276	2.816180
7161.402000	0.149490	0.182498	19.799276	2.782537
7164.412000	0.149490	0.182498	19.799276	2.830463
7167.404000	0.149490	0.182498	19.799911	2.817450
7170.408000	0.149490	0.182498	19.799276	2.825385
7173.408000	0.149490	0.182498	19.799276	2.820941
7176.398999	0.149490	0.182498	19.799276	2.830463
7179.502000	0.149490	0.182498	19.799276	2.817450
7182.458000	0.149490	0.182498	19.799276	2.830463
7185.496000	0.149807	0.182498	19.799276	2.825068
7188.405000	0.149490	0.182498	19.799276	2.817450
7191.409000	0.149490	0.182498	19.799911	2.830463
7194.401000	0.149490	0.182498	19.799276	2.842841
7197.409000	0.149490	0.183133	19.799276	2.830463
7200.405000	0.149490	0.182498	19.799276	2.830463
7203.492000	0.149490	0.182498	19.799276	2.830463
7206.483999	0.149490	0.182498	19.799276	2.830463
7209.405000	0.149490	0.182498	19.799276	2.830463
7212.409000	0.149490	0.182498	19.799276	2.842524
7215.417000	0.149490	0.182498	19.799276	2.806659
7218.461000	0.149490	0.183133	19.799276	2.806659
7221.480000	0.149490	0.182498	19.799276	2.783490
7224.477000	0.149490	0.182498	19.799276	2.821259
7227.452000	0.149490	0.182498	19.799276	2.766668
7230.411000	0.149490	0.183133	19.799276	2.817450
7233.401000	0.149490	0.182498	19.799276	2.817450
7236.402999	0.149490	0.182498	19.799276	2.851728
7239.419000	0.149490	0.182498	19.799276	2.834272
7242.461000	0.149490	0.182498	19.799276	2.833637
7245.411000	0.149490	0.182498	19.799276	2.855219
7248.402000	0.149490	0.182498	19.799276	2.831098
7251.410999	0.149490	0.182498	19.799276	2.818402
7254.407000	0.149490	0.182498	19.799911	2.818402
7257.416000	0.149490	0.182498	19.799911	2.780633
7260.411000	0.149490	0.182498	19.799276	2.807294
7263.408000	0.149490	0.182498	19.799276	2.879976
7266.417000	0.149490	0.182498	19.799276	2.818720
7269.412000	0.149490	0.182498	19.799276	2.867597
7272.404000	0.149490	0.182498	19.799276	2.814276
7275.424000	0.149490	0.182498	19.799276	2.839032
7278.412000	0.149490	0.182498	19.799276	2.852998
7281.513000	0.149807	0.182498	19.799276	2.842841
7284.419000	0.149490	0.182498	19.799276	2.879341
7287.412000	0.149490	0.182498	19.799276	2.859663
7290.499000	0.149490	0.182498	19.799276	2.823480
7293.462000	0.149490	0.182498	19.799276	2.832685
7296.520000	0.149490	0.182498	19.799276	2.805072
7299.403000	0.149490	0.182498	19.799911	2.853632
7302.403000	0.149490	0.183133	19.799276	2.806976
7305.402999	0.149490	0.182498	19.799276	2.879658
7308.474000	0.149490	0.182498	19.799276	2.869502
7311.418000	0.149490	0.183133	19.799911	2.830781
7314.405000	0.149490	0.182498	19.799911	2.879023
7317.464000	0.149490	0.182498	19.799276	2.853315
7320.406000	0.149490	0.182498	19.799276	2.842524
7323.427000	0.149490	0.182498	19.799276	2.803485
7326.513000	0.149490	0.183133	19.799911	2.821576
7329.419000	0.149490	0.182498	19.799276	2.843476
7332.409999	0.149490	0.182498	19.799276	2.866645
7335.414999	0.149490	0.182498	19.799276	2.835859
7338.480999	0.149490	0.182498	19.799276	2.891402
7341.419000	0.149490	0.182498	19.799276	2.891402
7344.407000	0.149490	0.183133	19.799911	2.865376
7347.420000	0.149172	0.182498	19.799276	2.903780
7350.420000	0.149490	0.182498	19.799276	2.851411
7353.432001	0.149490	0.182498	19.799276	2.839032
7356.416000	0.149490	0.182498	19.799276	2.834906
7359.420000	0.149490	0.182498	19.799276	2.836811
7362.411000	0.149807	0.182498	19.799911	2.827289
7365.413000	0.149490	0.183133	19.799276	2.873628
7368.435000	0.149490	0.183133	19.799276	2.840302
7371.518000	0.149490	0.182498	19.799276	2.883784
7374.509000	0.149490	0.182498	19.799276	2.859028
7377.417000	0.149490	0.182498	19.799276	2.869184
7380.414000	0.149490	0.182498	19.799276	2.879658
7383.505000	0.149490	0.182498	19.799276	2.866645
7386.409999	0.149490	0.182498	19.799276	2.819672
7389.423000	0.149490	0.182498	19.799276	2.865693
7392.489000	0.149490	0.182498	19.799276	2.831733
7395.439000	0.149490	0.182498	19.799276	2.867280
7398.523000	0.149490	0.182498	19.799276	2.879658
7401.437000	0.149490	0.182498	19.799276	2.892671
7404.413000	0.149490	0.183133	19.799276	2.832685
7407.424999	0.149490	0.182498	19.799276	2.869184
7410.416000	0.149490	0.182498	19.799276	2.869184
7413.457999	0.149490	0.182498	19.799276	2.832685
7416.474000	0.149490	0.182498	19.799276	2.875849
7419.474000	0.149490	0.182498	19.799276	2.876484
7422.412000	0.149490	0.182498	19.799276	2.892671
7425.412000	0.149490	0.182498	19.799276	2.832367
7428.412000	0.149490	0.182498	19.799276	2.869184
7431.486000	0.149490	0.182498	19.799276	2.867597
7434.436999	0.149490	0.182498	19.799276	2.867597
7437.416000	0.149490	0.182498	19.799911	2.819037
7440.412000	0.149490	0.182498	19.799911	2.831415
7443.530000	0.149490	0.182498	19.799276	2.854902
7446.496000	0.149490	0.182498	19.799276	2.880610
7449.429000	0.149490	0.182498	19.799276	2.854584
7452.429000	0.149490	0.183133	19.799276	2.879976
7455.421000	0.149490	0.182498	19.799276	2.867915
7458.438000	0.149490	0.182498	19.799911	2.839667
7461.414000	0.149490	0.183133	19.799276	2.859345
7464.419000	0.149490	0.182498	19.799276	2.859028
7467.435000	0.149490	0.182498	19.799276	2.836811
7470.502000	0.149490	0.182498	19.799276	2.836493
7473.419000	0.149490	0.182498	19.799276	2.843158
7476.423000	0.149490	0.182498	19.799276	2.852363
7479.428000	0.149490	0.183133	19.799276	2.840302
7482.414000	0.149490	0.182498	19.798958	2.852680
7485.427000	0.149490	0.183133	19.799276	2.854902
7488.421999	0.149490	0.182498	19.799911	2.868550
7491.427000	0.149490	0.182498	19.799911	2.843158
7494.526000	0.149807	0.182498	19.799276	2.880610
7497.439000	0.149490	0.182498	19.799276	2.843476
7500.511000	0.149490	0.182498	19.798958	2.879658
7503.443000	0.149490	0.183133	19.799276	2.843793
7506.427000	0.149490	0.182498	19.799276	2.880610
7509.414000	0.149490	0.182498	19.799276	2.865058
7512.423000	0.149490	0.182498	19.799276	2.869184
7515.414000	0.149490	0.183133	19.799276	2.845063
7518.418000	0.149490	0.183133	19.799276	2.869184
7521.424000	0.149490	0.182498	19.798958	2.879023
7524.529000	0.149490	0.182498	19.798958	2.863471
7527.419000	0.149490	0.182498	19.798958	2.837763
7530.515000	0.149490	0.183133	19.798958	2.865376
7533.415000	0.149490	0.182498	19.798958	2.865376
7536.428000	0.149490	0.182498	19.798958	2.868867
7539.419000	0.149490	0.182498	19.798958	2.854902
7542.424999	0.149490	0.182498	19.799276	2.842841
7545.428999	0.149490	0.183133	19.799276	2.843793
7548.428999	0.149490	0.182498	19.799276	2.846332
7551.420000	0.149490	0.182498	19.798958	2.843793
7554.432000	0.149490	0.182498	19.798958	2.843793
7557.421000	0.149490	0.182498	19.799276	2.831733
7560.424000	0.149490	0.182498	19.799276	2.843158
7563.416000	0.149490	0.182498	19.799276	2.876801
7566.449000	0.149490	0.182498	19.799276	2.866645
7569.421999	0.149490	0.182498	19.799276	2.879341
7572.421000	0.149490	0.182498	19.799276	2.855219
7575.483000	0.149490	0.182498	19.799276	2.866645
7578.430000	0.149490	0.182498	19.799276	2.831415
7581.418000	0.149490	0.182498	19.799276	2.843158
7584.418000	0.149490	0.182498	19.799276	2.845380
7587.431000	0.149490	0.183133	19.799276	2.853950
7590.417999	0.149490	0.182498	19.799276	2.847602
7593.417999	0.149490	0.182498	19.799276	2.850776
7596.432000	0.149490	0.182498	19.798958	2.858711
7599.523000	0.149490	0.182498	19.799276	2.850458
7602.428000	0.149490	0.182498	19.799276	2.850776
7605.423000	0.149490	0.182498	19.799276	2.858711
7608.420000	0.149490	0.182498	19.799276	2.868867
7611.423000	0.149490	0.182498	19.798958	2.850458
7614.436999	0.149490	0.183133	19.798958	2.845063
7617.426000	0.149490	0.182498	19.798958	2.842524
7620.480000	0.149490	0.182498	19.798958	2.855219
7623.426000	0.149490	0.182498	19.798958	2.831098
7626.432000	0.149490	0.182498	19.798958	2.869184
7629.428000	0.149490	0.182498	19.798958	2.869184
7632.437000	0.149490	0.182498	19.798958	2.842841
7635.428000	0.149490	0.182498	19.798958	2.869184
7638.486000	0.149490	0.182498	19.798958	2.842841
7641.481999	0.149490	0.183133	19.798958	2.868550
7644.436999	0.149490	0.182498	19.799276	2.869184
7647.438000	0.149490	0.182498	19.799276	2.883784
7650.536000	0.149490	0.182498	19.799276	2.843158
7653.424000	0.149490	0.182498	19.799276	2.865058
7656.433000	0.149490	0.182498	19.799276	2.876484
7659.426000	0.149490	0.182498	19.799276	2.863789
7662.434000	0.149490	0.182498	19.798958	2.876484
7665.504000	0.149490	0.182498	19.799276	2.861884
7668.464000	0.149490	0.182498	19.799276	2.868550
7671.459000	0.149490	0.182498	19.799276	2.869502
7674.454999	0.149490	0.182498	19.799276	2.855219
7677.463000	0.149490	0.182498	19.799276	2.854902
7680.434000	0.149490	0.182498	19.799276	2.869184
7683.425000	0.149490	0.182498	19.799276	2.869184
7686.495000	0.149490	0.182498	19.799276	2.869184
7689.430000	0.149490	0.182498	19.799276	2.880610
7692.426000	0.149490	0.182498	19.799276	2.869502
7695.442000	0.149490	0.182498	19.799276	2.877754
7698.454999	0.149490	0.182498	19.799276	2.872041
7701.505000	0.149490	0.182498	19.799276	2.869184
7704.496000	0.149490	0.182498	19.799911	2.896797
7707.455000	0.149490	0.182498	19.799276	2.873628
7710.440000	0.149490	0.183133	19.799276	2.869184
7713.444000	0.149490	0.182498	19.799276	2.877436
7716.440000	0.149490	0.182498	19.799276	2.859345
7719.438000	0.149490	0.182498	19.799276	2.869184
7722.439000	0.149490	0.182498	19.799276	2.879658
7725.440000	0.149490	0.182498	19.799276	2.844428
7728.510000	0.149490	0.182498	19.799276	2.844428
7731.448000	0.149490	0.182498	19.799276	2.844745
7734.436000	0.149490	0.182498	19.799276	2.879976
7737.440000	0.149490	0.182498	19.799276	2.869184
7740.441000	0.149490	0.182498	19.799276	2.869502
7743.515000	0.149490	0.182498	19.799276	2.855219
7746.441000	0.149490	0.182498	19.799276	2.868550
7749.433000	0.149490	0.182498	19.799276	2.871406
7752.432000	0.149490	0.182498	19.799276	2.866010
7755.549000	0.149490	0.182498	19.799276	2.869184
7758.457000	0.149490	0.182498	19.799276	2.869184
7761.545000	0.149490	0.182498	19.798958	2.871406
7764.545000	0.149490	0.182498	19.799276	2.883149
7767.437000	0.149490	0.182498	19.799276	2.899971
7770.434000	0.149490	0.182498	19.799276	2.899971
7773.439000	0.149490	0.182498	19.799276	2.868867
7776.460000	0.149490	0.182498	19.799276	2.879976
7779.439000	0.149490	0.182498	19.799276	2.881245
7782.468000	0.149490	0.182498	19.799276	2.893623
7785.456000	0.149490	0.182498	19.799276	2.907271
7788.488000	0.149490	0.182498	19.799276	2.932344
7791.503000	0.149490	0.182498	19.799276	2.881562
7794.458000	0.149490	0.182498	19.799276	2.880610
7797.441000	0.149490	0.182498	19.799276	2.881245
7800.442000	0.149490	0.182498	19.799276	2.896162
7803.439000	0.149490	0.182498	19.798958	2.907588
7806.451000	0.149490	0.182498	19.798958	2.882514
7809.508000	0.149490	0.182498	19.799276	2.870771
7812.539000	0.149490	0.182498	19.799276	2.880928
7815.483000	0.149490	0.182498	19.799276	2.872676
7818.438000	0.149490	0.182498	19.799276	2.882832
7821.451000	0.149490	0.182498	19.799276	2.880610
7824.438000	0.149490	0.182498	19.798958	2.872041
7827.438000	0.149490	0.182498	19.799276	2.878071
7830.439000	0.149490	0.182498	19.799276	2.883784
7833.519000	0.149490	0.182498	19.799276	2.933614
7836.494000	0.149490	0.182498	19.799276	2.921553
7839.514000	0.149490	0.182498	19.798958	2.931075
7842.445000	0.149490	0.182498	19.799276	2.910127
7845.548000	0.149490	0.182498	19.798958	2.917745
7848.454999	0.149490	0.182498	19.798958	2.875532
7851.446000	0.149490	0.182498	19.799276	2.875849
7854.447000	0.149490	0.182498	19.799276	2.895210
7857.443000	0.149490	0.182498	19.799276	2.907906
7860.451000	0.149490	0.182498	19.799276	2.908858
7863.442000	0.149490	0.182498	19.798958	2.870454
7866.444000	0.149490	0.182498	19.799276	2.907906
7869.456000	0.149490	0.182498	19.799276	2.893940
7872.453000	0.149490	0.182498	19.799276	2.880610
7875.450000	0.149490	0.182498	19.798958	2.919966
7878.454000	0.149490	0.182498	19.798958	2.920918
7881.461000	0.149490	0.182498	19.798958	2.914253
7884.446000	0.149490	0.182498	19.798958	2.927266
7887.461999	0.149490	0.183133	19.798958	2.932344
7890.505000	0.149490	0.182498	19.798958	2.933297
7893.542000	0.149490	0.182498	19.798958	2.932344
7896.450000	0.149490	0.182498	19.798958	2.939010
7899.451000	0.149490	0.182498	19.798958	2.939010
7902.479000	0.149490	0.182498	19.798958	2.920284
7905.467000	0.149490	0.183133	19.798958	2.932344
7908.467000	0.149490	0.182498	19.798958	2.933297
7911.475000	0.149490	0.182498	19.798958	2.967892
7914.450000	0.149490	0.182498	19.799276	2.931392
7917.462000	0.149490	0.182498	19.799276	2.943136
7920.451000	0.149490	0.182498	19.799276	2.933297
7923.458000	0.149490	0.182498	19.799276	2.919014
7926.450000	0.149490	0.182498	19.798958	2.932979
7929.454000	0.149490	0.182498	19.798958	2.910762
7932.450000	0.149490	0.182498	19.798958	2.916792
7935.450000	0.149490	0.182498	19.798958	2.940914
7938.472000	0.149490	0.182498	19.798958	2.941231
7941.451000	0.149490	0.182498	19.798958	2.940914
7944.451000	0.149490	0.182498	19.798958	2.936788
7947.456000	0.149490	0.182498	19.798958	2.949801
7950.464000	0.149490	0.182498	19.798958	2.932344
7953.450999	0.149490	0.182498	19.798958	2.932979
7956.456000	0.149490	0.182498	19.798958	2.923775
7959.451000	0.149490	0.182498	19.798958	2.920918
7962.451000	0.149490	0.182498	19.798958	2.932344
7965.456000	0.149490	0.182498	19.798958	2.909175
7968.460000	0.149490	0.182498	19.798958	2.932344
7971.518000	0.149490	0.182498	19.798958	2.932979
7974.559000	0.149490	0.182498	19.798641	2.921871
7977.461000	0.149490	0.182498	19.798958	2.921236
7980.453000	0.149490	0.182498	19.798958	2.945357
7983.556000	0.149490	0.182498	19.798958	2.932979
7986.453000	0.149490	0.182498	19.798641	2.937423
7989.561000	0.149490	0.182498	19.798641	2.910127
7992.450000	0.149490	0.182498	19.798641	2.935201
7995.454000	0.149490	0.182498	19.798641	2.915523
7998.463000	0.149490	0.182498	19.798641	2.937740
8001.451000	0.149490	0.182498	19.798958	2.947579
8004.454999	0.149490	0.182498	19.798641	2.939962
8007.480999	0.149490	0.183133	19.798958	2.957736
8010.457000	0.149490	0.182498	19.798958	2.945357
8013.453000	0.149490	0.182498	19.798958	2.945357
8016.457000	0.149490	0.182498	19.799276	2.908223
8019.511000	0.149490	0.182498	19.799276	2.945040
8022.472000	0.149490	0.182498	19.799276	2.921236
8025.454000	0.149490	0.182498	19.798958	2.932979
8028.529000	0.149490	0.182498	19.798958	2.920284
8031.457999	0.149490	0.182498	19.798958	2.933297
8034.457999	0.149490	0.182498	19.798958	2.969162
8037.467000	0.149490	0.182498	19.798958	2.963449
8040.525000	0.149490	0.182498	19.798958	2.943453
8043.463000	0.149490	0.182498	19.798958	2.919966
8046.467000	0.149490	0.182498	19.799276	2.932979
8049.458000	0.149490	0.182498	19.798958	2.932979
8052.474000	0.149490	0.182498	19.798958	2.921553
8055.522000	0.149490	0.182498	19.798958	2.921553
8058.535999	0.149490	0.182498	19.799276	2.943770
8061.490000	0.149490	0.182498	19.798958	2.923140
8064.460000	0.149490	0.182498	19.799276	2.917110
8067.460000	0.149490	0.182498	19.798641	2.949483
8070.460000	0.149490	0.182498	19.798958	2.917745
8073.481000	0.149490	0.182498	19.799276	2.937423
8076.469000	0.149490	0.182498	19.798958	2.939644
8079.461000	0.149490	0.182498	19.798958	2.962179
8082.455999	0.149490	0.183133	19.798958	2.959005
8085.476999	0.149490	0.182498	19.798958	2.925997
8088.456000	0.149490	0.182498	19.799276	2.936788
8091.485000	0.149490	0.182498	19.798958	2.919966
8094.460000	0.149490	0.182498	19.798958	2.977096
8097.460000	0.149490	0.182498	19.798958	2.909810
8100.465000	0.149490	0.182498	19.799276	2.925997
8103.456000	0.149490	0.182498	19.798958	2.947262
8106.534000	0.149490	0.182498	19.798958	2.921236
8109.476999	0.149490	0.182498	19.798958	2.953927
8112.468999	0.149490	0.182498	19.798958	2.989157
8115.456000	0.149490	0.182498	19.798958	2.909175
8118.500000	0.149490	0.182498	19.798958	2.945992
8121.456000	0.149490	0.182498	19.798958	2.913936
8124.456000	0.149490	0.182498	19.798958	2.919966
8127.469000	0.149490	0.182498	19.798958	2.926949
8130.456000	0.149490	0.182498	19.798958	2.919966
8133.466000	0.149490	0.182498	19.798958	2.933297
8136.527999	0.149490	0.182498	19.798958	2.920284
8139.457999	0.149490	0.182498	19.798958	2.939644
8142.474000	0.149490	0.182498	19.798958	2.947896
8145.484000	0.149490	0.182498	19.799276	2.944405
8148.529000	0.149490	0.182498	19.799276	2.935518
8151.468000	0.149490	0.182498	19.799276	2.967257
8154.543000	0.149490	0.182498	19.798958	2.932344
8157.460000	0.149490	0.182498	19.798958	2.908858
8160.561000	0.149490	0.182498	19.798958	2.933614
8163.468999	0.149490	0.182498	19.798958	2.967257
8166.470000	0.149490	0.183133	19.798958	2.934884
8169.475000	0.149490	0.182498	19.798641	2.935836
8172.475000	0.149490	0.182498	19.798958	2.928218
8175.475000	0.149490	0.182498	19.798958	2.951388
8178.466000	0.149490	0.182498	19.798958	2.920284
8181.463000	0.149490	0.182498	19.798958	2.950118
8184.472001	0.149490	0.182498	19.798641	2.959005
8187.483999	0.149490	0.182498	19.798958	2.967574
8190.472000	0.149490	0.182498	19.798958	2.969162
8193.579000	0.149490	0.182498	19.798958	2.911397
8196.466000	0.149490	0.182498	19.798958	2.921236
8199.560000	0.149490	0.183133	19.798958	2.908223
8202.470000	0.149490	0.182498	19.798958	2.959005
8205.467000	0.149490	0.182498	19.798958	2.920918
8208.479000	0.149490	0.182498	19.798958	2.908858
8211.466000	0.149490	0.182498	19.798958	2.934884
8214.469999	0.149490	0.182498	19.799276	2.969162
8217.565000	0.149490	0.182498	19.799276	2.946310
8220.470000	0.149490	0.182498	19.799276	2.933614
8223.487000	0.149490	0.182498	19.799276	2.932344
8226.479000	0.149490	0.182498	19.798958	2.932344
8229.467000	0.149490	0.182498	19.798958	2.967892
8232.470000	0.149490	0.182498	19.799276	2.931392
8235.470000	0.149490	0.182498	19.799276	2.932979
8238.475000	0.149490	0.182498	19.799276	2.909810
8241.479000	0.149490	0.182498	19.799276	2.928218
8244.479000	0.149490	0.182498	19.799276	2.929488
8247.468000	0.149490	0.182498	19.799276	2.932344
8250.489000	0.149490	0.182498	19.799276	2.981539
8253.481000	0.149490	0.182498	19.799276	2.981539
8256.469000	0.149490	0.182498	19.799276	2.932344
8259.481000	0.149490	0.182498	19.798958	2.908223
8262.473000	0.149490	0.182498	19.799276	2.946310
8265.472000	0.149490	0.182498	19.799276	2.994235
8268.480999	0.149490	0.183133	19.798958	2.970431
8271.473000	0.149490	0.182498	19.798958	2.945357
8274.468000	0.149490	0.182498	19.798958	2.994552
8277.477000	0.149490	0.182498	19.799276	2.941866
8280.586000	0.149490	0.182498	19.798958	2.950118
8283.469000	0.149490	0.182498	19.799276	2.932344
8286.505000	0.149490	0.182498	19.798958	2.923140
8289.476999	0.149490	0.182498	19.799276	2.936153
8292.506000	0.149490	0.182498	19.799276	2.943453
