LabVIEW Measurement	
Writer_Version	2
Reader_Version	2
Separator	Tab
Decimal_Separator	.
Multi_Headings	No
X_Columns	One
Time_Pref	Absolute
Operator	Mark
Date	2019/07/23
Time	10:58:41.3990001678466796875
***End_of_Header***	
	
Channels	4				
Samples	1	1	1	1	
Date	2019/07/23	2019/07/23	2019/07/23	2019/07/23	
Time	10:58:41.4070000648498535157	10:58:41.5019998550415039063	10:58:41.5100002288818359375	10:58:41.3990001678466796875	
X_Dimension	Time	Time	Time	Time	
X0	0.0000000000000000E+0	0.0000000000000000E+0	0.0000000000000000E+0	0.0000000000000000E+0	
Delta_X	1.000000	1.000000	1.000000	1.000000	
***End_of_Header***					
X_Value	FieldPoint\FP @ COM1\cFP-AI-110 @3\Channel 0 (Scaled)	FieldPoint\FP @ COM1\cFP-AI-110 @3\Channel 1 (Scaled)	FieldPoint\FP @ COM1\cFP-AI-110 @3\Channel 2 (Scaled)	FieldPoint\FP @ COM1\cFP-AI-110 @3\Channel 3 (Scaled)	Comment
0.000000	242.008400	0.000191	391.101074	192.496014
3.004000	243.198586	0.000191	398.321819	191.781712
6.079000	241.928768	0.000191	405.921871	190.591526
9.029000	239.786339	0.000191	409.987785	189.718437
12.050000	243.674469	0.000191	409.721024	188.369942
14.999000	243.674469	0.000191	409.521152	189.083767
18.016000	244.229984	0.000191	412.520420	187.020969
21.079000	240.897369	0.000191	414.053299	190.036011
23.999000	239.469242	0.000191	414.853184	194.082928
27.054000	237.882328	0.000191	418.518955	193.527412
30.000999	235.184383	0.000191	420.051834	194.796753
33.021000	238.437843	0.000191	417.452709	193.130684
36.075000	240.262699	0.000191	418.119213	194.558811
39.089000	235.977840	0.000191	417.585690	198.605728
42.001000	236.374569	0.000191	416.986076	197.018337
45.013000	237.009239	0.000191	420.118725	197.812271
48.002000	234.628868	0.000191	418.319084	197.732639
51.039000	236.295414	0.000191	419.518711	199.478340
54.011000	230.820370	0.000191	420.318596	203.207684
57.011000	233.994198	0.000191	415.586178	207.254124
60.011000	232.883167	0.000191	419.052078	212.650013
63.003000	237.326813	0.000191	416.519444	215.902996
66.003000	233.438683	0.000191	416.986076	215.506268
69.003000	236.215782	0.000191	418.319084	215.665054
72.012000	233.597469	0.000191	421.651604	213.522625
75.003999	232.645226	0.000191	423.051102	209.476185
77.999000	232.804012	0.000191	423.251373	212.491226
81.003000	227.170181	0.000191	424.517490	208.365154
84.003000	230.264854	0.000191	425.784008	208.206367
87.008000	230.979156	0.000191	421.051590	210.269642
90.003000	230.423641	0.000191	422.051346	207.492542
93.000000	232.724857	0.000191	422.584869	206.699085
96.013000	227.725697	0.000191	422.184727	204.715443
99.076000	231.137943	0.000191	419.052078	206.619453
102.003999	228.281212	0.000191	420.118725	208.523941
105.026000	229.392242	0.000191	421.585114	210.269642
108.099999	227.805328	0.000191	414.919674	214.157295
111.005000	229.947758	0.000191	418.652336	215.030384
114.006000	232.248497	0.000191	422.918121	212.253284
117.081000	229.312611	0.000191	424.251129	212.729168
120.013000	230.820370	0.000191	423.384354	213.760567
123.019000	227.170181	0.000191	423.051102	213.284683
126.005000	229.471397	0.000191	418.785717	207.730484
129.036000	226.059628	0.000191	413.786537	214.236927
132.011000	226.138783	0.000191	411.787025	215.585899
135.023000	225.900841	0.000191	414.919674	205.350113
138.016000	229.233456	0.000191	417.719070	206.143570
141.007000	226.456356	0.000191	418.518955	205.032539
144.004000	225.424957	0.000191	418.252193	205.825996
147.113000	226.218414	0.000191	419.985344	210.031700
150.009000	225.345325	0.000191	419.985344	212.094498
153.006000	224.075985	0.000191	420.718338	216.617298
156.095999	220.584583	0.000191	424.317619	216.696453
159.088000	222.092342	0.000191	423.717606	218.521786
162.043000	225.742054	0.000191	422.451488	220.584583
165.017000	226.218414	0.000191	419.185459	221.140099
168.013000	225.345325	0.000191	420.451977	218.283367
171.009000	224.948597	0.000191	421.718094	220.663738
174.026000	226.456356	0.000191	422.184727	223.441315
177.018001	223.441315	0.000191	422.984612	224.551868
180.022999	221.933556	0.000191	424.650871	225.583267
183.031000	223.044586	0.000191	425.517246	218.204212
186.039000	222.171497	0.000191	426.650383	217.093182
189.023000	223.441315	0.000191	427.583649	219.235611
192.014000	228.122425	0.000191	428.783276	214.792442
195.015000	222.568226	0.000191	427.450268	217.331600
198.036000	221.695614	0.000191	428.050282	185.434055
201.041000	220.743370	0.000191	430.582916	191.147041
204.016000	220.346642	0.000191	430.383045	201.065254
207.012000	221.695614	0.000191	428.983147	206.699085
210.099999	223.202896	0.000191	427.717030	209.158611
213.101000	222.409439	0.000191	426.384022	212.173653
216.025000	221.615982	0.000191	429.516270	209.158611
219.026000	221.615982	0.000191	429.183018	211.301041
222.026000	223.202896	0.000191	426.384022	211.063099
225.017000	221.298885	0.000191	423.784496	203.048897
228.018001	220.346642	0.000191	424.184238	199.240398
231.014000	221.060467	0.000191	426.850254	197.494698
234.044000	218.045425	0.000191	425.584137	196.304512
237.047000	219.870281	0.000191	425.317375	193.606567
240.018000	222.250652	0.000191	423.584625	194.558811
243.019000	219.315243	0.000191	421.384842	194.400024
246.114000	218.204212	0.000191	422.118237	192.019653
249.018000	225.583267	0.000191	421.585114	195.034695
252.122000	216.299725	0.000191	418.785717	188.211155
255.014000	218.125057	0.000191	419.918854	186.703396
258.033999	215.665054	0.000191	421.784985	169.167709
261.014000	213.125896	0.000191	422.184727	170.278740
264.010000	214.316082	0.000191	421.718094	174.801540
267.080000	212.491226	0.000191	422.118237	176.864338
270.066000	245.658112	0.000191	420.051834	174.483967
273.020000	243.277740	0.000191	417.918941	172.500324
276.040000	245.261383	0.000191	415.653069	176.943970
279.079000	243.436527	0.000191	411.787025	181.942654
282.080000	243.039799	0.000191	414.120190	180.434895
285.040000	247.007084	0.000191	417.519199	182.021809
288.088000	249.467087	0.000191	418.852207	184.243870
291.032000	251.450729	0.000191	422.318108	188.449097
294.025000	259.385300	0.000191	411.253902	187.893581
297.033000	277.952385	0.000191	410.787270	188.607883
300.129000	274.143887	0.000191	410.987541	186.862183
303.019000	273.191643	0.000191	408.188145	184.560966
306.034000	272.318554	0.000191	408.721268	187.734795
309.020000	273.667526	0.000191	408.721268	185.434055
312.111000	274.460983	0.000191	411.253902	187.655640
315.031000	273.429585	0.000191	413.320305	183.926296
318.087000	272.477341	0.000191	412.786781	181.466770
321.113000	279.142570	0.000191	414.719803	180.355740
324.022000	276.920986	0.000191	417.319328	185.671997
327.021000	274.699402	0.000191	416.252682	185.434055
330.023000	271.525097	0.000191	417.852451	185.909939
333.093000	270.890427	0.000191	420.918610	189.242554
336.137000	270.573330	0.000191	418.385574	191.147041
339.118000	270.652485	0.000191	414.786694	191.067410
342.061000	270.811272	0.000191	414.053299	191.147041
345.089000	274.302673	0.000191	414.919674	192.733955
348.028000	272.398186	0.000191	415.719559	190.591526
351.069000	280.491543	0.000191	414.853184	187.576485
354.070000	272.874069	0.000191	417.985832	188.052368
357.029000	270.017815	0.000191	416.319572	182.101440
360.029000	270.414543	0.000191	418.652336	182.736111
363.048999	270.811272	0.000191	418.985588	181.228352
366.062000	271.049213	0.000191	417.052567	184.640598
369.054000	271.604729	0.000191	416.252682	185.434055
372.029000	275.334072	0.000191	417.052567	184.957695
375.030000	271.128368	0.000191	416.052811	177.816582
378.035000	280.094814	0.000191	413.053543	160.915565
381.036000	268.827629	0.000191	413.586666	148.696136
384.111000	274.064255	0.000191	413.720047	147.902679
387.033000	269.859028	0.000191	411.187412	146.712494
390.107999	269.779873	0.000191	412.853672	142.824841
393.050000	268.906784	0.000191	415.386307	141.872597
396.047000	274.064255	0.000191	412.453529	141.158295
399.129000	271.287155	0.000191	412.853672	144.411755
402.098000	267.954540	0.000191	410.187656	148.299408
405.033000	268.034172	0.000191	410.187656	149.965954
408.041000	267.399502	0.000191	408.121254	152.187538
411.144000	268.034172	0.000191	412.853672	151.552868
414.033999	267.319870	0.000191	411.387283	151.711655
417.109000	266.923141	0.000191	412.720291	147.823524
420.131000	269.462299	0.000191	414.919674	147.347641
423.132000	296.202374	0.000191	414.719803	146.315765
426.094000	299.534988	0.000191	405.655109	144.332123
429.124000	298.503113	0.000191	405.588619	144.173336
432.041000	298.503113	0.000191	401.256344	147.505951
435.071000	295.567226	0.000191	402.522461	146.236610
438.139000	296.440315	0.000191	401.522705	145.284367
441.073000	297.709656	0.000191	405.055496	144.411755
444.057000	297.233772	0.000191	405.255367	144.173336
447.048000	298.106384	0.000191	404.855625	145.046425
450.048000	300.169659	0.000191	405.455238	141.475868
453.048000	299.693298	0.000191	403.455727	142.269325
456.085000	294.932556	0.000191	397.210789	140.840721
459.049000	297.789288	0.000191	400.789711	135.762882
462.048000	296.440315	0.000191	400.589840	135.604095
465.048000	296.440315	0.000191	402.389481	136.873436
468.057000	298.106384	0.000191	401.122963	132.906151
471.057000	298.582745	0.000191	400.389969	132.192326
474.057000	296.202374	0.000191	402.322590	134.413910
477.057000	300.645542	0.000191	402.256100	134.493065
480.048000	306.358528	0.000191	403.322346	133.620453
483.048000	304.057789	0.000191	405.855381	130.287838
486.052000	304.295731	0.000191	403.922359	128.462982
489.048000	305.485916	0.000191	403.322346	131.636810
492.048999	304.136944	0.000191	403.522617	132.112694
495.132000	306.041431	0.000191	404.189121	135.128212
498.049000	306.517315	0.000191	403.855869	133.223724
501.049000	306.199741	0.000191	404.588863	130.922508
504.117000	303.660583	0.000191	404.322102	132.430267
507.051000	305.009556	0.000191	404.922115	132.985783
510.047000	301.756573	0.000191	404.055740	132.271481
513.051001	300.248814	0.000191	402.989094	132.112694
516.119000	303.660583	0.000191	396.576118	130.843353
519.102000	304.295731	0.000191	397.766304	132.112694
522.051000	305.485916	0.000191	397.607517	136.715126
525.059999	306.834888	0.000191	394.592476	139.888954
528.052000	305.803013	0.000191	396.496487	140.523624
531.052000	304.454517	0.000191	394.036961	141.951752
534.069000	305.961800	0.000191	395.306301	144.728851
537.114000	304.612827	0.000191	396.734905	143.935394
540.048000	304.136944	0.000191	396.020603	139.968109
543.048999	302.708817	0.000191	396.655273	141.792965
546.138000	303.502274	0.000191	392.687988	137.349796
549.158000	305.723858	0.000191	387.212944	132.826996
552.058000	306.834888	0.000191	391.180229	133.699608
555.054000	304.533672	0.000191	390.625191	133.858395
558.148000	299.772930	0.000191	389.117432	133.779240
561.055000	304.057789	0.000191	389.990044	133.858395
564.051000	301.438999	0.000191	389.990044	134.493065
567.073000	303.025913	0.000191	389.672947	133.461666
570.073000	303.740215	0.000191	390.069675	134.255123
573.107000	302.787971	0.000191	389.276218	132.826996
576.135000	306.199741	0.000191	387.371731	130.208683
579.056000	302.946758	0.000191	388.244820	129.335594
582.056000	305.485916	0.000191	386.895847	127.907467
585.052000	303.263855	0.000191	386.975002	129.256439
588.065000	303.581429	0.000191	388.165188	124.178123
591.131000	300.248814	0.000191	376.818848	122.591209
594.114999	299.455357	0.000191	373.803329	123.225880
597.055999	302.550030	0.000191	373.327446	123.305511
600.056000	304.454517	0.000191	373.803329	122.432423
603.065000	303.105545	0.000191	377.612305	124.098969
606.056000	300.169659	0.000191	378.484917	126.240921
609.057000	304.612827	0.000191	379.833889	127.907467
612.078000	299.931717	0.000191	378.643703	119.814110
615.060000	301.676941	0.000191	380.627346	121.083450
618.052000	301.676941	0.000191	379.199219	119.179440
621.064000	301.597786	0.000191	379.040432	119.893265
624.059999	301.597786	0.000191	380.151463	121.083450
627.123000	302.153301	0.000191	379.437160	120.686722
630.056000	303.502274	0.000191	380.706501	117.909622
633.073000	298.423958	0.000191	379.358006	117.592525
636.148000	301.280212	0.000191	380.071831	118.068409
639.056000	297.948074	0.000191	380.627346	122.591209
642.073000	298.027229	0.000191	380.627346	125.685883
645.057000	299.138260	0.000191	381.658745	124.733639
648.072000	298.820686	0.000191	378.088188	126.637650
651.056000	302.153301	0.000191	376.025391	124.733639
654.056000	303.819370	0.000191	377.691460	112.672997
657.086000	306.120586	0.000191	379.516315	117.037010
660.082000	299.614143	0.000191	378.643703	119.814110
663.072000	302.470398	0.000191	376.898003	116.243553
666.057000	301.676941	0.000191	378.564072	115.529251
669.123000	300.963116	0.000191	381.976318	115.211678
672.057000	301.835728	0.000191	376.501274	115.688038
675.058000	300.486755	0.000191	376.422119	116.560650
678.058000	302.232456	0.000191	378.326130	116.084766
681.124000	302.153301	0.000191	378.484917	118.227196
684.058000	303.978157	0.000191	380.627346	118.306351
687.125000	302.470398	0.000191	380.468559	117.750835
690.058000	300.963116	0.000191	378.484917	121.876907
693.078000	300.645542	0.000191	378.009033	122.273636
696.063000	300.248814	0.000191	377.373886	120.845509
699.064000	300.804329	0.000191	378.009033	117.592525
702.076000	303.263855	0.000191	378.405762	118.703079
705.089000	303.819370	0.000191	378.326130	120.924664
708.061000	302.629185	0.000191	380.944920	120.686722
711.060000	304.216099	0.000191	379.992676	122.432423
714.056000	300.804329	0.000191	376.422119	122.591209
717.060000	298.820686	0.000191	375.707817	124.336910
720.061000	300.248814	0.000191	377.532673	120.210838
723.057000	303.263855	0.000191	377.373886	120.131207
726.081999	305.089188	0.000191	377.929401	119.099808
729.130000	300.804329	0.000191	377.850246	117.592525
732.062000	304.057789	0.000191	378.009033	116.719437
735.058000	301.042271	0.000191	378.881645	117.037010
738.096000	302.232456	0.000191	380.865288	119.020653
741.142000	300.169659	0.000191	376.501274	118.306351
744.062000	298.741531	0.000191	375.073147	116.402340
747.062000	301.121902	0.000191	374.041748	117.354107
750.128000	299.931717	0.000191	375.945759	119.893265
753.087000	302.312088	0.000191	367.614460	120.289993
756.089000	303.978157	0.000191	367.535305	117.909622
759.080000	303.343487	0.000191	371.581745	117.512894
762.064000	302.312088	0.000191	369.360161	119.258595
765.064000	303.105545	0.000191	356.109333	120.924664
768.069000	300.010872	0.000191	355.870914	123.067093
771.064000	299.058628	0.000191	356.506062	122.273636
774.157000	301.676941	0.000191	359.124374	119.734478
777.064000	300.010872	0.000191	358.727646	120.924664
780.088999	301.835728	0.000191	360.632133	120.766354
783.160000	300.328445	0.000191	360.790443	120.289993
786.064000	302.787971	0.000191	359.441471	118.227196
789.064000	297.709656	0.000191	361.980629	118.306351
792.160000	301.121902	0.000191	359.044743	119.734478
795.065000	299.455357	0.000191	358.965588	119.179440
798.089000	298.186016	0.000191	360.393715	119.734478
801.072000	300.169659	0.000191	361.345959	119.814110
804.064000	298.661900	0.000191	360.473347	120.845509
807.064000	301.518631	0.000191	363.091660	122.273636
810.073000	301.280212	0.000191	365.392876	119.893265
813.065000	302.946758	0.000191	365.392876	117.592525
816.064000	302.550030	0.000191	366.503429	118.544292
819.069000	302.550030	0.000191	366.979790	119.734478
822.074000	300.090027	0.000191	367.773247	122.273636
825.171000	299.296570	0.000191	365.472031	120.766354
828.066000	300.963116	0.000191	366.662216	121.797752
831.066000	302.787971	0.000191	366.027546	122.035694
834.167000	302.232456	0.000191	366.583061	122.432423
837.145000	298.265171	0.000191	367.852402	124.892426
840.067000	301.756573	0.000191	368.804646	126.399708
843.082000	299.772930	0.000191	371.185017	121.718121
846.147000	299.931717	0.000191	369.994831	124.654007
849.126000	300.963116	0.000191	371.105862	125.844193
852.140000	300.010872	0.000191	367.138577	128.700924
855.067999	301.756573	0.000191	363.250446	129.811954
858.068000	303.105545	0.000191	368.090343	123.940182
861.125999	301.201057	0.000191	365.392876	120.131207
864.084000	299.296570	0.000191	366.344643	122.194481
867.068000	300.090027	0.000191	366.344643	120.686722
870.068000	298.186016	0.000191	366.424274	120.607567
873.068000	298.265171	0.000191	366.662216	120.052052
876.064000	299.217415	0.000191	366.583061	117.512894
879.068000	299.534988	0.000191	370.153618	119.337749
882.068000	301.676941	0.000191	365.551186	119.655323
885.068000	301.518631	0.000191	365.075302	120.607567
888.084000	301.756573	0.000191	363.329601	124.733639
891.146000	296.757412	0.000191	365.472031	125.844193
894.068000	299.614143	0.000191	367.058945	130.446625
897.077000	295.963955	0.000191	365.630817	135.921669
900.064000	295.963955	0.000191	365.789604	137.666893
903.088000	296.678257	0.000191	358.330917	137.905312
906.070000	296.202374	0.000191	361.504745	136.397552
909.065000	297.471714	0.000191	360.314560	134.889793
912.069000	297.789288	0.000191	358.886433	133.382511
915.066000	299.217415	0.000191	359.283161	134.969425
918.069000	297.789288	0.000191	359.838200	139.253807
921.065000	300.090027	0.000191	358.886433	137.428951
924.078000	298.027229	0.000191	357.537460	127.193165
927.073000	298.503113	0.000191	357.378674	121.876907
930.065000	300.010872	0.000191	358.251286	116.402340
933.165000	299.534988	0.000191	358.330917	116.799068
936.078000	301.518631	0.000191	359.521103	118.861866
939.078000	300.248814	0.000191	352.221203	119.655323
942.077000	304.295731	0.000191	350.396347	118.703079
945.065000	300.486755	0.000191	347.936344	119.179440
948.065000	300.486755	0.000191	346.508217	121.163082
951.073000	300.566387	0.000191	337.621403	120.686722
954.078000	299.772930	0.000191	336.986732	121.638966
957.078000	301.201057	0.000191	336.669159	125.685883
960.162000	300.566387	0.000191	335.796547	126.320553
963.066000	303.184700	0.000191	336.986732	126.876068
966.071000	300.328445	0.000191	341.667843	124.733639
969.163000	302.312088	0.000191	341.191959	125.209522
972.070000	298.820686	0.000191	341.747475	120.686722
975.086000	300.963116	0.000191	343.731117	119.814110
978.078000	301.280212	0.000191	345.000458	114.180279
981.164000	300.010872	0.000191	340.636444	112.117481
984.071000	301.518631	0.000191	338.414860	112.117481
987.071000	304.136944	0.000191	342.382145	111.006451
990.142000	304.057789	0.000191	343.969059	113.386822
993.087000	301.201057	0.000191	345.238400	114.101124
996.067000	301.676941	0.000191	346.031857	114.656639
999.092000	299.772930	0.000191	342.699718	113.228035
1002.071000	300.486755	0.000191	346.428585	113.069725
1005.071000	301.756573	0.000191	346.428585	111.244392
1008.067000	300.169659	0.000191	345.873547	111.086082
1011.113000	301.994514	0.000191	343.254757	107.673836
1014.151000	302.946758	0.000191	341.667843	108.626080
1017.068000	303.581429	0.000191	342.382145	110.054207
1020.078000	300.725174	0.000191	340.477657	109.816265
1023.073000	298.979473	0.000191	344.048214	108.784866
1026.074000	300.248814	0.000191	341.509533	110.212994
1029.149000	299.534988	0.000191	339.208317	113.783550
1032.132000	300.804329	0.000191	338.652802	116.640282
1035.175000	301.201057	0.000191	341.747475	114.021492
1038.153000	301.597786	0.000191	346.190643	113.863182
1041.073999	301.994514	0.000191	346.984100	113.228035
1044.161000	303.105545	0.000191	343.493176	116.243553
1047.075000	299.931717	0.000191	340.239716	119.179440
1050.074000	301.994514	0.000191	345.238400	117.830467
1053.099000	299.931717	0.000191	346.428585	119.576168
1056.074000	299.138260	0.000191	349.523258	118.861866
1059.078000	301.201057	0.000191	354.919147	117.671680
1062.095000	300.248814	0.000191	354.760361	114.021492
1065.084000	302.312088	0.000191	354.998302	111.641121
1068.076000	300.169659	0.000191	357.219887	108.229351
1071.089000	301.756573	0.000191	356.029701	110.371780
1074.155000	298.423958	0.000191	353.093815	110.609722
1077.169000	299.455357	0.000191	356.902790	109.657478
1080.119000	299.058628	0.000191	356.585217	111.006451
1083.153000	298.741531	0.000191	358.092976	111.482811
1086.078000	300.248814	0.000191	357.061100	111.879539
1089.079000	301.994514	0.000191	356.347275	111.879539
1092.095000	301.994514	0.000191	355.474186	112.752151
1095.154000	299.138260	0.000191	356.585217	112.514210
1098.078000	299.772930	0.000191	349.840832	110.530567
1101.083000	299.772930	0.000191	349.047375	110.292625
1104.079000	297.154140	0.000191	338.256073	111.324024
1107.159000	298.503113	0.000191	337.462616	110.530567
1110.142000	298.265171	0.000191	336.272430	111.324024
1113.079000	300.090027	0.000191	335.161400	109.498692
1116.132999	300.804329	0.000191	336.748314	109.340382
1119.104000	301.518631	0.000191	340.160561	107.594681
1122.079000	297.471714	0.000191	339.446259	106.086922
1125.080000	299.455357	0.000191	340.318871	106.563282
1128.088000	298.186016	0.000191	341.350746	104.579639
1131.129000	297.630501	0.000191	341.826630	103.706551
1134.075000	298.582745	0.000191	343.810272	106.086922
1137.155000	298.027229	0.000191	344.444942	106.721592
1140.080000	300.090027	0.000191	342.858028	106.563282
1143.081999	300.010872	0.000191	346.349430	107.753468
1146.177000	301.121902	0.000191	346.428585	103.230667
1149.081000	298.979473	0.000191	348.253918	100.691509
1152.106000	298.582745	0.000191	348.491859	100.135994
1155.081000	298.503113	0.000191	346.904945	102.675152
1158.082000	300.248814	0.000191	348.491859	103.547764
1161.081000	298.582745	0.000191	346.667004	101.643753
1164.077001	301.438999	0.000191	350.475502	101.247025
1167.077000	301.676941	0.000191	348.967743	101.167393
1170.111000	300.010872	0.000191	344.683361	101.484966
1173.081000	302.946758	0.000191	340.715599	101.008606
1176.091000	299.296570	0.000191	336.510372	100.056839
1179.082000	298.265171	0.000191	334.447575	101.247025
1182.133000	298.661900	0.000191	332.860661	97.279739
1185.083000	297.789288	0.000191	335.002613	96.168709
1188.083000	301.280212	0.000191	336.986732	95.930767
1191.084001	304.533672	0.000191	338.970375	95.930767
1194.095999	304.692459	0.000191	337.383461	96.168709
1197.101000	300.328445	0.000191	339.128685	89.900208
1200.099999	301.994514	0.000191	339.128685	94.264221
1203.084000	299.931717	0.000191	339.842987	99.183750
1206.084000	297.789288	0.000191	336.351585	101.643753
1209.174000	301.438999	0.000191	336.431217	105.531406
1212.094000	300.804329	0.000191	337.145042	107.753468
1215.157000	303.978157	0.000191	336.510372	108.150196
1218.085999	304.057789	0.000191	336.351585	107.753468
1221.153000	304.612827	0.000191	335.002613	101.247025
1224.174000	301.518631	0.000191	336.669159	96.009922
1227.094000	302.232456	0.000191	334.844303	95.454407
1230.087000	300.169659	0.000191	335.478973	95.534039
1233.176000	299.138260	0.000191	334.447575	98.787022
1236.156000	301.201057	0.000191	333.495331	103.309822
1239.121000	303.263855	0.000191	330.321503	105.055523
1242.164000	303.660583	0.000191	335.241032	106.642437
1245.092999	303.263855	0.000191	331.590843	107.594681
1248.172000	304.612827	0.000191	336.431217	108.546925
1251.181000	302.312088	0.000191	334.923458	111.165237
1254.158000	300.486755	0.000191	334.367943	111.006451
1257.107000	302.629185	0.000191	334.844303	107.753468
1260.119000	299.693298	0.000191	333.812428	106.086922
1263.170000	302.312088	0.000191	328.654957	104.024124
1266.180000	301.280212	0.000191	333.654118	105.293465
1269.099999	301.835728	0.000191	333.257389	108.070564
1272.116000	303.184700	0.000191	332.384300	107.594681
1275.091000	302.629185	0.000191	330.241871	106.642437
1278.175000	298.265171	0.000191	330.877018	106.960011
1281.087000	298.503113	0.000191	332.225513	106.960011
1284.183000	300.645542	0.000191	328.417015	108.467293
1287.091000	299.138260	0.000191	330.797386	108.467293
1290.175000	302.629185	0.000191	333.336544	108.626080
1293.096000	305.009556	0.000191	333.812428	107.991409
1296.100999	304.136944	0.000191	332.225513	108.626080
1299.125999	301.756573	0.000191	321.592999	109.181595
1302.092000	302.629185	0.000191	320.879173	109.975052
1305.180000	300.328445	0.000191	322.704029	108.070564
1308.092000	298.820686	6.585789	320.085716	107.594681
1311.177001	302.153301	33.960533	319.292259	108.150196
1314.194000	300.725174	60.541821	319.054317	109.657478
1317.093000	302.946758	96.644592	321.831417	110.054207
1320.093000	304.612827	124.098969	323.815060	111.086082
1323.092999	304.533672	140.126896	326.750946	109.101963
1326.182000	300.486755	136.953068	324.370575	108.626080
1329.092999	301.121902	169.644070	327.941132	107.277107
1332.191000	300.725174	164.882851	326.671314	106.721592
1335.194000	299.217415	169.008923	329.290104	105.769825
1338.122000	300.645542	159.725380	326.354218	107.356739
1341.176000	300.248814	161.391926	327.464771	108.150196
1344.093000	302.153301	158.059311	328.337860	107.673836
1347.102000	303.025913	151.314926	326.671314	107.356739
1350.098000	303.263855	129.732323	327.941132	107.832623
1353.103000	300.248814	139.412594	329.686832	109.657478
1356.091000	300.963116	168.374252	328.258228	109.022808
1359.095000	300.169659	166.470242	323.815060	108.467293
1362.120000	298.979473	147.347641	324.211788	107.753468
1365.158000	301.042271	150.521469	325.798702	106.960011
1368.095000	300.248814	20.075035	323.180389	107.515049
1371.196000	302.153301	45.227718	323.180389	109.022808
1374.091000	303.105545	11.822891	320.720387	109.975052
1377.099999	303.025913	0.000191	323.180389	110.054207
1380.112000	299.772930	0.000191	326.195431	110.371780
1383.095000	300.804329	8.172703	319.609356	109.737110
1386.107000	299.693298	0.000191	315.880013	110.212994
1389.124000	298.106384	15.711021	317.546558	110.054207
1392.183000	300.248814	0.000191	319.688988	109.657478
1395.099000	299.455357	3.332806	321.434689	109.260750
1398.104000	301.756573	26.819420	315.721703	110.371780
1401.105000	300.804329	40.387821	313.023758	108.705235
1404.095999	302.708817	63.953590	311.515999	107.118320
1407.096000	301.438999	72.602463	311.515999	107.594681
1410.196000	298.820686	92.518520	312.785816	106.563282
1413.108000	300.566387	80.695820	314.372730	106.642437
1416.092000	297.789288	67.444992	315.404129	107.515049
1419.161000	301.042271	68.000507	314.134789	107.832623
1422.143000	299.614143	66.492748	316.197586	106.166553
1425.092999	301.994514	63.239765	314.531517	104.976368
1428.140000	297.630501	54.194164	316.038799	107.356739
1431.106000	300.963116	50.306034	316.038799	105.848980
1434.094000	298.423958	48.957062	316.038799	103.309822
1437.098000	299.534988	35.389137	317.784500	102.754307
1440.098000	299.058628	51.734161	316.197586	105.293465
1443.098000	298.265171	52.686405	317.228985	104.976368
1446.099000	301.201057	33.881378	315.404129	106.007767
1449.097000	301.676941	46.021175	315.880013	107.277107
1452.100999	300.645542	47.211838	303.978157	106.007767
1455.110000	298.820686	27.216148	301.121902	107.118320
1458.117000	298.582745	24.439049	303.105545	107.832623
1461.102000	297.709656	9.362888	302.708817	110.054207
1464.191000	296.599102	6.665421	300.486755	110.847664
1467.186000	297.550869	9.760094	302.946758	112.831306
1470.111000	297.948074	14.758778	303.343487	113.307667
1473.104000	299.138260	36.499691	303.581429	113.069725
1476.206000	299.138260	41.022491	305.168343	112.593365
1479.104000	299.534988	32.929134	304.851246	113.704395
1482.151000	297.312927	31.659794	306.517315	114.577007
1485.113000	298.265171	37.848663	306.120586	113.624763
1488.117000	297.074986	34.357262	309.849930	112.117481
1491.194000	297.074986	8.490276	307.866287	113.386822
1494.101000	298.503113	0.000191	306.517315	114.577007
1497.106000	297.789288	0.000191	305.961800	113.783550
1500.108000	299.138260	0.000191	308.025074	114.259911
1503.194000	297.948074	0.000191	310.008717	112.831306
1506.103000	299.772930	0.000191	308.738899	112.831306
1509.132999	297.709656	10.632706	309.294415	113.783550
1512.108000	295.170498	5.713177	312.071514	110.292625
1515.193000	296.440315	5.792332	312.864971	111.799908
1518.109000	295.646858	9.601307	311.198902	110.371780
1521.110000	297.312927	11.505318	309.373569	109.340382
1524.169000	296.440315	15.631390	312.785816	107.197952
1527.110001	298.503113	13.251019	312.230301	107.039165
1530.158000	296.995831	11.108589	310.643387	102.437210
1533.111000	298.820686	9.998035	306.041431	102.516365
1536.111000	298.186016	0.000191	307.786655	103.944492
1539.167000	295.488071	0.793648	310.167503	101.643753
1542.121000	296.202374	9.204578	309.770298	103.944492
1545.112000	295.488071	13.171864	309.611988	106.721592
1548.205000	296.916199	8.014393	308.342171	108.467293
1551.129001	299.058628	0.000191	339.684200	111.641121
1554.175000	301.042271	0.000191	338.256073	112.752151
1557.109000	295.963955	5.713177	336.351585	112.037849
1560.113000	296.519470	1.745892	337.383461	109.101963
1563.181000	294.773769	5.078506	340.795231	111.006451
1566.108000	293.663216	0.000191	343.254757	108.705235
1569.113000	295.488071	0.000191	342.302990	107.515049
1572.209000	295.091343	0.000191	343.016815	108.229351
1575.113000	296.916199	0.000191	347.857189	110.530567
1578.122000	298.186016	0.000191	344.286633	110.609722
1581.113000	297.471714	0.000191	344.444942	110.371780
1584.134000	294.456673	0.000191	344.762516	111.482811
1587.114000	294.297886	0.000191	341.826630	111.006451
1590.130000	293.980312	0.000191	342.858028	110.847664
1593.113000	296.519470	0.000191	346.031857	109.022808
1596.122000	296.440315	0.000191	348.333073	107.039165
1599.129000	297.233772	0.000191	350.078773	103.786182
1602.180000	298.582745	0.000191	345.238400	101.326180
1605.113000	297.630501	0.000191	346.031857	99.580479
1608.168000	299.931717	0.000191	347.301674	96.644592
1611.114000	295.963955	0.000191	348.412704	93.788338
1614.193000	297.948074	0.000191	350.475502	92.598152
1617.177999	295.488071	0.000191	348.809433	89.185905
1620.115000	294.535828	0.000191	349.999619	87.916565
1623.115000	297.233772	0.000191	348.253918	86.964321
1626.115000	296.202374	0.000191	343.175602	87.043953
1629.124000	298.106384	0.000191	345.318031	84.980679
1632.166000	296.916199	0.000191	345.318031	84.504795
1635.150000	299.534988	0.000191	343.651485	85.694981
1638.217999	295.250130	0.000191	342.699718	84.346008
1641.120000	295.805645	0.000191	340.160561	82.679462
1644.125000	295.805645	0.000191	343.731117	82.362366
1647.141000	295.012188	0.000191	343.254757	81.648064
1650.217000	297.948074	0.000191	335.875702	79.108906
1653.125000	297.709656	0.000191	336.907101	77.680779
1656.137000	298.265171	0.000191	335.478973	78.870964
1659.208000	295.726013	0.000191	337.224674	78.633022
1662.129000	296.202374	0.000191	335.954857	79.823208
1665.197000	294.615459	0.000191	334.447575	80.219936
1668.125000	294.932556	0.000191	332.146358	81.410122
1671.112000	296.122742	0.000191	332.701874	80.854607
1674.132000	294.297886	0.000191	334.605885	80.457878
1677.187000	296.440315	0.000191	334.844303	80.695820
1680.112000	299.296570	0.000191	330.480289	80.537510
1683.112000	300.169659	0.000191	335.716915	79.108906
1686.117000	295.408916	0.000191	335.954857	79.902363
1689.140999	294.218731	0.000191	334.367943	80.140781
1692.153000	294.059944	0.000191	335.637760	79.347324
1695.116000	293.583584	0.000191	336.669159	80.537510
1698.208000	296.043587	0.000191	335.875702	78.474236
1701.116000	294.932556	0.000191	336.510372	78.077507
1704.112000	296.440315	0.000191	336.351585	79.664421
1707.116000	297.233772	0.000191	332.701874	77.601624
1710.149000	299.296570	0.000191	334.923458	78.870964
1713.125000	294.297886	0.000191	335.161400	77.680779
1716.116000	294.059944	0.000191	334.764671	77.363205
1719.117000	297.074986	0.000191	331.432056	75.062466
1722.132000	296.440315	0.000191	331.194115	74.824524
1725.116000	296.281528	0.000191	330.480289	74.982834
1728.155000	295.726013	0.000191	326.830101	76.649380
1731.116000	297.709656	0.000191	328.417015	71.888638
1734.121000	296.599102	0.000191	330.718231	71.967793
1737.177999	298.741531	0.000191	328.972530	73.475552
1740.221000	294.615459	0.000191	327.068043	74.031067
1743.208000	293.663216	0.000191	327.702713	73.157978
1746.121000	294.456673	0.000191	328.258228	73.078823
1749.210000	295.250130	0.000191	330.400658	72.602463
1752.137000	296.122742	0.000191	328.575802	73.634338
1755.116000	297.471714	0.000191	330.241871	75.300407
1758.141000	299.455357	0.000191	328.972530	74.110222
1761.174000	295.091343	0.000191	319.768143	74.427795
1764.187000	296.995831	0.000191	297.074986	74.903679
1767.116000	295.250130	0.000191	286.522102	75.062466
1770.116000	294.297886	0.000191	280.332756	74.903679
1773.112000	295.646858	0.000191	278.349113	76.808167
1776.118000	295.488071	0.000191	283.744526	74.824524
1779.186000	296.916199	0.000191	286.045742	73.078823
1782.144000	298.027229	0.000191	285.490227	73.395920
1785.119000	298.741531	0.000191	281.999302	71.571064
1788.196000	295.408916	0.000191	282.713127	71.650219
1791.208000	295.726013	0.000191	285.728645	72.285366
1794.112000	294.218731	0.000191	289.933872	75.538349
1797.136000	296.202374	0.000191	291.996670	75.538349
1800.145000	296.519470	0.000191	292.948914	81.886005
1803.134000	295.646858	0.000191	295.726013	84.504795
1806.137000	299.058628	0.000191	298.027229	86.726379
1809.121000	298.423958	0.000191	300.090027	88.551235
1812.130000	299.217415	0.000191	299.772930	90.772820
1815.178999	295.408916	0.000191	301.201057	93.550396
1818.132999	293.742371	0.000191	301.438999	97.279739
1821.146000	296.122742	0.000191	302.312088	98.945808
1824.154000	293.742371	0.000191	305.723858	103.230667
1827.126000	296.043587	0.000191	305.168343	98.311138
1830.121000	294.932556	0.000191	303.978157	101.247025
1833.146000	296.519470	0.000191	314.531517	85.536194
1836.117000	296.440315	0.000191	318.181229	81.172180
1839.196000	298.106384	0.000191	318.577957	82.441521
1842.125999	292.790127	0.000191	316.911888	85.932922
1845.142000	295.488071	0.000191	322.148514	80.219936
1848.122000	294.297886	0.000191	323.338699	83.234978
1851.132000	293.425274	0.000191	326.909256	84.742737
1854.132000	296.757412	0.000191	325.243187	86.250496
1857.144000	295.012188	0.000191	326.115799	86.488438
1860.132000	297.312927	0.000191	325.401974	85.218620
1863.199000	295.012188	0.000191	325.401974	80.695820
1866.123000	297.312927	0.000191	325.560760	79.188538
1869.123000	296.043587	0.000191	324.290943	78.315449
1872.210999	294.535828	0.000191	321.275902	77.046108
1875.132000	296.043587	0.000191	320.641232	77.125263
1878.128000	295.646858	0.000191	325.164032	74.506950
1881.183000	297.789288	0.000191	326.750946	70.063305
1884.132000	299.455357	0.000191	331.352901	70.380878
1887.132000	298.582745	0.000191	332.622242	71.174335
1890.156000	296.202374	0.000191	325.164032	74.031067
1893.123000	296.916199	0.000191	317.546558	78.395081
1896.123000	294.773769	0.000191	324.846458	79.902363
1899.136000	293.663216	0.000191	329.765987	79.585266
1902.224000	296.519470	0.000191	331.194115	79.108906
1905.124000	295.646858	0.000191	328.258228	77.442837
1908.132000	297.312927	0.000191	330.241871	78.712177
1911.206000	297.709656	0.000191	331.590843	78.315449
1914.131000	298.820686	0.000191	329.924774	78.156662
1917.125000	294.694614	0.000191	331.273746	80.219936
1920.208000	296.757412	0.000191	333.733273	81.727695
1923.141000	294.932556	0.000191	324.449730	81.013393
1926.132999	294.932556	0.000191	327.305984	83.631706
1929.190000	296.995831	0.000191	343.889904	81.013393
1932.128000	295.963955	0.000191	348.412704	81.489277
1935.149000	297.471714	0.000191	351.427746	79.029751
1938.133000	298.265171	0.000191	354.046059	79.902363
1941.124000	298.582745	0.000191	349.999619	82.362366
1944.124000	294.297886	0.000191	351.268959	80.616665
1947.120000	294.773769	0.000191	349.999619	82.600307
1950.136000	296.599102	0.000191	351.348114	77.204895
1953.124000	293.901157	0.000191	349.523258	77.363205
1956.191000	295.488071	0.000191	355.236244	77.918720
1959.124000	295.170498	0.000191	353.808117	77.442837
1962.129000	297.471714	0.000191	359.124374	74.427795
1965.124000	294.694614	0.000191	357.457829	76.093864
1968.132000	296.916199	0.000191	358.410072	79.823208
1971.132999	293.028545	0.000191	358.886433	77.918720
1974.191000	292.393398	0.000191	361.345959	79.188538
1977.132999	297.074986	0.000191	361.108017	79.029751
1980.137000	294.694614	0.000191	361.345959	80.616665
1983.129000	296.202374	0.000191	358.410072	80.695820
1986.124000	298.106384	0.000191	359.838200	81.886005
1989.120000	296.202374	0.000191	360.314560	76.966476
1992.124000	296.043587	0.000191	361.901474	76.808167
1995.133000	295.963955	0.000191	361.980629	76.649380
1998.153000	294.218731	0.000191	361.028862	77.046108
2001.125000	293.266487	0.000191	361.980629	66.096020
2004.130000	294.059944	0.000191	363.409233	69.666576
2007.132999	294.615459	0.000191	353.887272	70.063305
2010.228000	296.519470	0.000191	353.411388	74.824524
2013.125000	297.630501	0.000191	353.411388	73.951435
2016.125000	297.154140	0.000191	353.014660	72.920036
2019.125000	292.710972	0.000191	354.284000	73.395920
2022.197000	295.805645	0.000191	355.077457	69.587421
2025.125000	293.663216	0.000191	355.474186	68.159294
2028.141000	293.583584	0.000191	354.601574	68.476391
2031.191999	294.694614	0.000191	359.521103	71.412277
2034.122000	295.567226	0.000191	357.775402	66.810322
2037.125000	296.122742	0.000191	357.934189	68.079662
2040.133000	296.202374	0.000191	358.568859	68.079662
2043.126000	308.818531	0.000191	361.822319	71.809006
2046.142000	303.581429	0.000191	360.870075	71.015549
2049.184000	303.819370	0.000191	361.980629	72.126579
2052.143000	304.216099	0.000191	364.281845	73.792648
2055.127000	303.581429	0.000191	364.996147	72.285366
2058.165000	305.089188	0.000191	363.647175	76.014709
2061.127000	305.168343	0.000191	359.521103	75.855923
2064.137000	306.755257	0.000191	356.426430	76.569748
2067.128000	306.358528	0.000191	358.330917	77.998352
2070.130000	307.786655	0.000191	350.237560	80.219936
2073.129001	303.740215	0.000191	352.379990	79.426479
2076.188000	305.485916	0.000191	353.093815	75.855923
2079.138000	305.485916	0.000191	353.093815	76.808167
2082.132999	304.692459	0.000191	354.204845	77.680779
2085.145000	305.565071	0.000191	355.950546	78.156662
2088.129000	307.628345	0.000191	358.568859	80.537510
2091.130000	307.310772	0.000191	353.808117	80.219936
2094.162000	303.819370	0.000191	351.586533	81.092548
2097.138000	305.803013	0.000191	353.331757	80.061150
2100.133999	303.184700	0.000191	354.522419	80.140781
2103.210000	301.994514	0.000191	354.363632	76.887321
2106.131000	303.740215	0.000191	356.585217	79.585266
2109.207000	304.612827	0.000191	357.537460	76.649380
2112.131000	304.771614	0.000191	354.998302	76.331806
2115.131000	306.755257	0.000191	355.791759	79.029751
2118.173000	307.786655	0.000191	356.902790	76.093864
2121.148000	304.692459	0.000191	357.537460	77.839565
2124.189000	303.660583	0.000191	354.442787	76.490593
2127.131000	302.153301	0.000191	357.775402	73.872280
2130.131000	300.725174	0.000191	355.870914	75.459194
2133.139000	303.819370	0.000191	354.760361	74.189377
2136.151999	305.168343	0.000191	354.284000	76.569748
2139.131000	303.978157	0.000191	354.046059	76.411438
2142.131000	304.692459	0.000191	355.712605	75.697136
2145.140000	305.247974	0.000191	351.348114	76.887321
2148.196000	300.963116	0.000191	345.476818	78.315449
2151.137000	302.708817	0.000191	345.714760	76.569748
2154.128000	301.280212	0.000191	348.571014	78.077507
2157.132999	301.201057	0.000191	350.316715	82.917881
2160.142000	304.454517	0.000191	348.412704	76.808167
2163.143000	302.312088	0.000191	352.300358	79.823208
2166.144000	303.581429	0.000191	346.190643	78.712177
2169.177001	301.994514	0.000191	341.509533	77.442837
2172.210001	305.803013	0.000191	344.365788	80.061150
2175.145000	302.787971	0.000191	345.555973	79.505634
2178.136000	302.946758	0.000191	345.873547	82.044792
2181.232000	301.042271	0.000191	346.190643	82.838249
2184.132000	301.756573	0.000191	340.795231	79.585266
2187.157000	303.263855	0.000191	337.145042	78.712177
2190.233000	301.756573	0.000191	339.763832	74.506950
2193.224000	303.581429	0.000191	341.033173	74.110222
2196.137000	301.438999	0.000191	341.191959	76.887321
2199.166000	302.787971	0.000191	339.842987	74.427795
2202.133000	299.455357	0.000191	342.858028	78.553867
2205.217999	301.756573	0.000191	342.858028	75.855923
2208.217999	300.804329	0.000191	337.700558	76.887321
2211.139000	300.486755	0.000191	338.335228	80.537510
2214.135000	303.819370	0.000191	336.193275	76.331806
2217.140000	304.136944	0.000191	335.954857	76.093864
2220.202000	303.343487	0.000191	336.669159	77.601624
2223.144000	301.280212	0.000191	340.874386	82.600307
2226.157000	301.597786	0.000191	336.669159	78.156662
2229.156000	299.693298	0.000191	332.305145	74.982834
2232.149000	300.804329	0.000191	332.860661	74.348164
2235.136000	301.756573	0.000191	335.875702	76.331806
2238.219000	299.455357	0.000191	336.510372	76.649380
2241.210999	301.280212	0.000191	333.892059	79.664421
2244.175000	302.550030	0.000191	335.875702	77.363205
2247.141000	302.470398	0.000191	336.193275	77.046108
2250.229000	298.423958	0.000191	337.383461	81.568909
2253.141000	299.058628	0.000191	334.447575	77.998352
2256.195000	298.582745	0.000191	333.733273	77.680779
2259.142000	298.979473	0.000191	334.288788	78.712177
2262.151000	300.169659	0.000191	331.352901	79.585266
2265.143000	300.486755	0.000191	330.162716	77.680779
2268.151000	303.978157	0.000191	330.956173	76.411438
2271.240000	301.676941	0.000191	328.813744	77.204895
2274.232000	303.025913	0.000191	325.401974	76.966476
2277.140000	299.217415	0.000191	324.290943	77.998352
2280.237000	300.010872	0.000191	321.751785	77.601624
2283.145000	301.438999	0.000191	324.132156	77.521992
2286.146000	298.186016	0.000191	324.053001	81.013393
2289.146000	299.296570	0.000191	324.687672	80.378723
2292.233000	299.217415	0.000191	327.623558	79.664421
2295.145000	301.597786	0.000191	328.972530	79.902363
2298.154000	298.820686	0.000191	328.258228	74.824524
2301.241000	300.486755	0.000191	327.385616	70.539665
2304.154000	297.789288	0.000191	326.115799	69.269848
2307.141000	302.312088	0.000191	330.083561	66.413593
2310.187000	302.232456	0.000191	328.258228	67.048264
2313.146000	299.931717	0.000191	329.131317	65.937710
2316.141000	303.184700	0.000191	330.400658	68.793964
2319.145000	304.454517	0.000191	330.241871	68.476391
2322.170000	303.343487	0.000191	329.686832	70.301723
2325.146000	299.296570	0.000191	333.733273	75.697136
2328.146000	301.994514	0.000191	337.303829	73.872280
2331.174000	299.455357	0.000191	338.256073	76.649380
2334.145000	298.820686	0.000191	339.208317	78.395081
2337.145000	300.566387	0.000191	338.970375	77.204895
2340.200000	300.169659	0.000191	339.525414	75.697136
2343.146000	302.550030	0.000191	337.700558	75.935078
2346.170000	303.184700	0.000191	337.383461	75.459194
2349.145000	303.660583	0.000191	333.177757	76.887321
2352.229000	299.534988	0.000191	338.811588	76.490593
2355.226000	302.312088	0.000191	335.399818	80.695820
2358.205000	301.835728	0.000191	337.859344	81.410122
2361.163000	300.248814	0.000191	339.367104	79.981995
2364.147000	300.566387	0.000191	334.209156	78.315449
2367.147000	299.058628	0.000191	335.320187	77.521992
2370.172000	301.280212	0.000191	334.288788	74.031067
2373.144000	300.725174	0.000191	333.892059	73.951435
2376.144000	303.978157	0.000191	334.209156	72.126579
2379.157000	297.948074	0.000191	331.987572	75.300407
2382.177001	299.772930	0.000191	333.098602	74.506950
2385.241000	300.169659	0.000191	330.162716	71.888638
2388.149000	299.138260	0.000191	334.288788	74.110222
2391.237000	300.090027	0.000191	321.751785	71.015549
2394.149000	299.058628	0.000191	324.687672	73.554707
2397.220000	300.566387	0.000191	320.402813	70.777607
2400.153000	300.248814	0.000191	320.799541	72.046947
2403.225000	301.597786	0.000191	319.609356	74.031067
2406.145000	298.661900	0.000191	321.910572	77.125263
2409.149000	298.741531	0.000191	323.577118	73.792648
2412.178999	300.566387	0.000191	323.180389	72.046947
2415.149000	298.820686	0.000191	324.608517	72.444153
2418.166000	300.645542	0.000191	322.783661	72.444153
2421.158999	303.184700	0.000191	325.243187	71.967793
2424.172000	301.835728	0.000191	323.180389	69.825363
2427.181000	300.169659	0.000191	323.418331	72.285366
2430.150000	300.645542	0.000191	320.799541	74.824524
2433.150000	297.789288	0.000191	320.799541	77.839565
2436.196000	299.455357	0.000191	319.292259	78.633022
2439.151000	299.614143	0.000191	318.895531	79.426479
2442.150000	300.248814	0.000191	320.323658	80.854607
2445.158000	301.518631	0.000191	319.768143	77.680779
2448.150000	302.550030	0.000191	315.642071	79.029751
2451.158000	301.756573	0.000191	317.784500	81.092548
2454.168000	298.820686	0.000191	318.657589	80.457878
2457.239000	299.455357	0.000191	314.372730	81.092548
2460.155000	298.106384	0.000191	313.499641	83.631706
2463.244000	296.995831	0.000191	313.579273	81.965637
2466.166999	298.661900	0.000191	313.023758	82.679462
2469.217999	298.582745	0.000191	313.341331	83.234978
2472.151000	299.931717	0.000191	313.896370	81.886005
2475.247000	301.994514	0.000191	312.627029	68.159294
2478.151000	301.438999	0.000191	310.802174	78.870964
2481.151000	296.043587	0.000191	310.881329	94.740582
2484.160000	297.948074	0.000191	313.182545	94.740582
2487.151000	296.916199	0.000191	306.517315	88.868809
2490.151999	296.599102	0.000191	305.485916	92.121792
2493.147000	298.186016	0.000191	305.009556	90.138149
2496.151000	297.948074	0.000191	307.548714	85.853767
2499.255000	300.645542	0.000191	309.691143	83.552551
2502.257000	299.138260	0.000191	309.532356	82.997036
2505.152000	303.581429	0.000191	310.325813	82.441521
2508.169000	297.471714	0.000191	311.119270	79.347324
2511.153000	297.789288	0.000191	311.595631	77.125263
2514.158000	301.756573	0.000191	311.278057	76.014709
2517.153000	301.042271	0.000191	311.754417	75.141621
2520.165000	302.787971	0.000191	314.293098	75.697136
2523.169000	305.247974	0.000191	313.579273	76.411438
2526.219000	304.295731	0.000191	313.499641	76.649380
2529.153000	300.645542	0.000191	312.151146	78.474236
2532.154000	303.263855	0.000191	311.198902	81.648064
2535.178000	301.121902	0.000191	311.198902	81.410122
2538.153000	300.169659	0.000191	311.278057	80.616665
2541.158000	302.470398	0.000191	309.373569	80.934238
2544.153000	301.280212	0.000191	306.199741	80.934238
2547.153000	302.708817	0.000191	308.025074	80.934238
2550.153000	305.089188	0.000191	306.199741	80.140781
2553.174000	304.057789	0.000191	306.676102	76.649380
2556.153000	301.280212	0.000191	306.993198	71.809006
2559.153000	308.738899	0.000191	308.818531	69.666576
2562.232000	301.438999	0.000191	304.216099	71.333122
2565.153000	300.725174	0.000191	305.485916	74.110222
2568.152999	300.804329	0.000191	304.136944	75.379562
2571.169000	301.994514	0.000191	302.946758	73.951435
2574.216000	301.994514	0.000191	302.470398	74.982834
2577.150000	303.184700	0.000191	302.787971	74.586105
2580.158000	303.660583	0.000191	300.804329	74.348164
2583.184000	300.486755	0.000191	303.978157	72.999191
2586.149000	298.741531	0.000191	304.295731	71.174335
2589.155000	299.296570	0.000191	305.009556	70.380878
2592.159000	299.058628	0.000191	300.169659	68.635178
2595.173000	300.486755	0.000191	304.612827	64.112377
2598.223000	301.756573	0.000191	304.295731	62.049580
2601.157000	305.565071	0.000191	302.312088	58.399391
2604.156000	303.740215	0.000191	300.566387	57.288837
2607.152000	305.247974	0.000191	302.708817	55.781078
2610.156000	300.010872	0.000191	301.121902	53.876591
2613.261000	298.741531	0.000191	301.756573	51.892948
2616.156000	302.312088	0.000191	302.232456	52.210522
2619.243999	301.042271	0.000191	300.566387	54.194164
2622.239999	303.184700	0.000191	299.931717	63.874435
2625.161000	304.533672	0.000191	298.265171	63.953590
2628.168000	303.581429	0.000191	298.741531	64.429951
2631.153000	300.248814	0.000191	299.693298	66.334438
2634.158000	302.550030	0.000191	296.599102	68.079662
2637.158000	298.741531	0.000191	294.932556	67.762566
2640.229000	298.582745	0.000191	296.757412	65.620136
2643.158000	300.248814	0.000191	294.694614	64.509106
2646.208000	302.312088	0.000191	297.074986	62.605095
2649.158000	302.787971	0.000191	293.186855	60.224724
2652.158000	304.692459	0.000191	294.615459	59.113693
2655.158000	304.851246	0.000191	296.122742	56.495380
2658.158000	298.741531	0.000191	295.567226	54.749680
2661.247000	301.438999	0.000191	296.995831	53.797436
2664.229000	299.455357	0.000191	296.757412	52.051735
2667.154000	298.106384	0.000191	298.503113	51.734161
2670.158000	301.280212	0.000191	300.010872	50.543976
2673.184000	302.946758	0.000191	301.597786	51.020336
2676.158000	302.946758	0.000191	307.231617	50.385666
2679.158000	302.470398	0.000191	316.594315	50.702763
2682.170000	303.105545	0.000191	321.275902	50.464821
2685.224999	298.979473	0.000191	322.783661	49.512577
2688.167000	300.090027	0.000191	323.418331	50.702763
2691.158000	301.756573	0.000191	327.226830	51.337433
2694.162001	299.296570	0.000191	329.290104	51.496220
2697.154000	299.534988	0.000191	333.415699	51.813793
2700.242000	298.979473	0.000191	333.177757	52.210522
2703.166000	301.756573	0.000191	333.495331	52.369308
2706.158999	300.328445	0.000191	335.875702	54.352951
2709.155000	302.470398	0.000191	336.907101	54.432106
2712.264000	298.106384	0.000191	337.780190	57.050419
2715.202000	300.328445	0.000191	334.764671	57.050419
2718.172000	299.217415	0.000191	335.161400	57.209206
2721.161000	310.643387	0.000191	335.241032	57.050419
2724.182000	310.167503	0.000191	332.701874	57.447147
2727.177999	310.564232	0.000191	336.669159	57.923508
2730.162000	313.261700	0.000191	340.795231	56.336594
2733.194000	311.357689	0.000191	341.667843	56.019020
2736.161000	312.309456	0.000191	342.699718	55.463505
2739.191000	308.104229	0.000191	339.684200	53.400707
2742.249000	307.866287	0.000191	333.098602	53.321552
2745.161000	310.325813	0.000191	332.860661	53.083134
2748.157000	308.818531	0.000191	331.908417	53.400707
2751.165000	311.754417	0.000191	332.384300	53.003979
2754.158000	313.261700	0.000191	329.765987	55.225563
2757.158000	311.992359	0.000191	329.131317	55.781078
2760.238000	308.659744	0.000191	328.813744	55.384350
2763.167000	310.167503	0.000191	329.765987	55.543137
2766.187000	307.151985	0.000191	326.433372	54.035378
2769.158000	307.151985	0.000191	326.195431	53.876591
2772.239000	310.643387	0.000191	329.765987	53.083134
2775.158000	309.294415	0.000191	329.607201	52.924347
2778.170000	312.706184	0.000191	331.352901	54.828835
2781.179000	313.499641	0.000191	330.162716	53.797436
2784.171000	313.499641	0.000191	333.257389	53.479862
2787.163000	309.373569	0.000191	334.447575	51.575851
2790.209000	310.008717	0.000191	332.622242	51.972580
2793.235000	309.849930	0.000191	333.177757	51.020336
2796.164000	309.215260	0.000191	333.812428	50.702763
2799.269001	310.881329	0.000191	333.336544	50.702763
2802.243000	309.770298	0.000191	331.590843	50.306034
2805.243000	311.515999	0.000191	328.575802	49.353790
2808.243999	311.278057	0.000191	327.861500	48.877907
2811.181000	314.213943	0.000191	327.068043	47.766876
2814.211000	310.008717	0.000191	324.449730	47.370148
2817.165000	311.992359	0.000191	324.449730	46.179962
2820.165000	310.643387	0.000191	323.259544	46.814632
2823.250000	309.691143	0.000191	323.180389	45.942020
2826.166000	311.754417	0.000191	322.228146	47.766876
2829.250999	310.484600	0.000191	321.831417	47.846508
2832.220000	312.627029	0.000191	325.164032	49.433422
2835.173000	312.309456	0.000191	324.687672	50.702763
2838.173000	312.785816	0.000191	323.815060	52.369308
2841.161000	309.849930	0.000191	326.592159	51.496220
2844.181000	309.215260	0.000191	324.925613	51.575851
2847.166000	309.056473	0.000191	325.719070	51.258278
2850.233000	309.056473	0.000191	324.767303	51.020336
2853.256000	310.008717	0.000191	325.639915	50.782394
2856.165000	312.864971	0.000191	328.654957	51.417065
2859.215000	310.564232	0.000191	330.321503	50.940704
2862.165000	305.961800	0.000191	330.797386	51.020336
2865.184999	309.294415	0.000191	332.622242	51.496220
2868.165000	306.993198	0.000191	328.337860	51.496220
2871.166000	307.151985	0.000191	327.702713	52.051735
2874.236001	309.215260	0.000191	330.162716	52.448463
2877.174000	306.596470	0.000191	330.400658	52.766037
2880.179000	309.611988	0.000191	327.702713	53.559494
2883.170000	310.484600	0.000191	326.115799	52.686405
2886.166000	309.532356	0.000191	326.433372	51.575851
2889.222000	307.151985	0.000191	327.702713	51.575851
2892.168000	308.342171	0.000191	328.258228	52.448463
2895.169000	310.167503	0.000191	328.258228	51.337433
2898.194000	305.803013	0.000191	326.195431	51.258278
2901.169000	309.532356	0.000191	326.115799	50.068092
2904.250000	307.707500	0.000191	325.322342	49.671364
2907.169000	310.167503	0.000191	322.941971	48.877907
2910.169000	310.167503	0.000191	326.592159	49.433422
2913.236000	312.230301	0.000191	321.196270	48.798752
2916.169000	306.993198	0.000191	321.672630	48.560333
2919.169000	305.168343	0.000191	321.672630	46.894264
2922.178000	309.849930	0.000191	323.418331	46.179962
2925.178000	307.231617	0.000191	325.084400	47.846508
2928.271000	308.738899	0.000191	324.687672	47.766876
2931.204000	311.754417	0.000191	325.877857	48.322392
2934.191000	313.738060	0.000191	327.147675	50.464821
2937.170000	314.293098	0.000191	325.322342	50.782394
2940.174000	314.134789	0.000191	327.305984	49.750519
2943.170000	308.738899	0.000191	328.258228	48.481178
2946.212000	309.215260	0.000191	323.418331	47.290993
2949.276000	309.294415	0.000191	322.862816	46.338749
2952.230000	310.008717	0.000191	323.656273	41.895580
2955.183000	313.896370	0.000191	323.656273	41.181278
2958.177000	314.689827	0.000191	324.925613	39.911461
