LabVIEW Measurement	
Writer_Version	2
Reader_Version	2
Separator	Tab
Decimal_Separator	.
Multi_Headings	No
X_Columns	One
Time_Pref	Absolute
Operator	Mark
Date	2019/07/19
Time	11:37:25.5189995765686035156
***End_of_Header***	
	
Channels	4				
Samples	1	1	1	1	
Date	2019/07/19	2019/07/19	2019/07/19	2019/07/19	
Time	11:37:25.6170001029968261719	11:37:25.5189995765686035156	11:37:25.5299997329711914063	11:37:25.5840001106262207031	
X_Dimension	Time	Time	Time	Time	
X0	0.0000000000000000E+0	0.0000000000000000E+0	0.0000000000000000E+0	0.0000000000000000E+0	
Delta_X	1.000000	1.000000	1.000000	1.000000	
***End_of_Header***					
X_Value	FieldPoint\FP @ COM1\cFP-AI-110 @1\Channel 0 (Scaled)	FieldPoint\FP @ COM1\cFP-AI-110 @1\Channel 1 (Scaled)	FieldPoint\FP @ COM1\cFP-AI-110 @1\Channel 2 (Scaled)	FieldPoint\FP @ COM1\cFP-AI-110 @1\Channel 3 (Scaled)	Comment
0.000000	0.157742	0.188211	19.829111	0.070777
2.973000	0.158059	0.188211	19.828793	0.070460
5.912000	0.158059	0.188211	19.828793	0.070460
8.891000	0.158059	0.188211	19.828476	0.070777
11.903000	0.158059	0.188211	19.828793	0.070460
14.903000	0.158059	0.188211	19.828476	0.070460
17.904000	0.158059	0.188211	19.828476	0.070460
20.892000	0.157742	0.188211	19.828793	0.070777
23.924000	0.157742	0.188211	19.828476	0.070460
26.988000	0.157742	0.188211	19.828157	0.070777
29.905000	0.157742	0.188211	19.828476	0.070460
32.920000	0.157742	0.188211	19.828476	0.070460
35.893000	0.157742	0.188211	19.828476	0.070460
38.893000	0.157742	0.188211	19.828157	0.070460
41.906000	0.157742	0.188211	19.828476	0.070460
44.908999	0.157742	0.188211	19.828157	0.070460
47.894000	0.157742	0.188211	19.828157	0.070460
50.931000	0.157742	0.188211	19.828157	0.070460
53.908000	0.157742	0.188211	19.828157	0.070460
56.904000	0.157742	0.188211	19.827841	0.070777
59.908000	0.157742	0.188211	19.828157	0.070460
62.896000	0.157742	0.188211	19.827841	0.070460
65.909000	0.157742	0.188211	19.828157	0.070460
68.917000	0.157742	0.188211	19.828157	0.070460
71.911999	0.157742	0.188211	19.827841	0.070460
74.904000	0.157742	0.188211	19.827841	0.070460
77.988000	0.157742	0.188211	19.827841	0.070460
80.897000	0.157742	0.188211	19.827206	0.070460
83.897000	0.157742	0.188211	19.827841	0.070460
86.910000	0.157742	0.188211	19.827206	0.070460
89.897000	0.157742	0.188211	19.827206	0.070460
92.905000	0.157742	0.188211	19.827206	0.070460
95.908999	0.157424	0.188211	19.827206	0.070460
98.897000	0.157742	0.187893	19.827206	0.070460
101.914000	0.157742	0.188211	19.827206	0.070460
104.898000	0.157742	0.188211	19.827206	0.070460
107.973000	0.157424	0.188211	19.827206	0.070460
110.899000	0.157742	0.188211	19.826889	0.070460
113.898000	0.157742	0.188211	19.826889	0.069825
116.927000	0.157424	0.187893	19.826889	0.070460
119.899000	0.157742	0.188211	19.826889	0.069825
122.897999	0.157424	0.187893	19.826889	0.070460
125.910000	0.157424	0.188211	19.826571	0.070460
128.919000	0.157742	0.188211	19.826889	0.069825
131.912000	0.157424	0.188211	19.826889	0.070460
134.913000	0.157424	0.188211	19.826571	0.070460
137.912000	0.157742	0.188211	19.826571	0.069825
140.908000	0.157424	0.188211	19.826571	0.069825
143.912000	0.157424	0.187893	19.826571	0.069825
146.912000	0.157424	0.187893	19.826254	0.070460
149.999000	0.157424	0.188211	19.826254	0.070460
152.900000	0.157424	0.188211	19.826571	0.070460
155.918000	0.157424	0.187893	19.826571	0.070460
158.914000	0.157424	0.187893	19.826254	0.069825
161.917000	0.157424	0.187893	19.826254	0.069825
164.913000	0.157424	0.187893	19.826571	0.069825
167.914000	0.157424	0.188211	19.826254	0.070460
170.913000	0.157424	0.187893	19.826254	0.069825
174.018000	0.157424	0.187893	19.826254	0.069825
176.913000	0.157424	0.187893	19.826254	0.069825
179.914000	0.157424	0.187893	19.825937	0.070460
182.979000	0.157424	0.187893	19.826254	0.069825
185.987000	0.157424	0.187893	19.825937	0.069825
188.921000	0.157424	0.187893	19.825937	0.069825
191.987000	0.157424	0.187893	19.825937	0.069825
194.915000	0.157424	0.187893	19.825302	0.070460
197.902000	0.157424	0.187893	19.825937	0.069825
200.930000	0.157424	0.187893	19.825302	0.069825
203.914000	0.157424	0.187893	19.825302	0.069825
206.922000	0.157424	0.187893	19.825302	0.069825
209.922000	0.157107	0.187893	19.825302	0.070460
212.915000	0.157107	0.187893	19.825302	0.069825
215.914000	0.157424	0.187893	19.825302	0.069825
218.902000	0.157107	0.187893	19.825302	0.069825
221.914000	0.157107	0.187893	19.824984	0.069825
224.915000	0.157424	0.187893	19.824984	0.069825
227.940000	0.157107	0.187893	19.825302	0.069825
230.901999	0.157107	0.187893	19.824984	0.069825
233.931000	0.157107	0.187893	19.825302	0.069825
236.903000	0.157424	0.187893	19.824667	0.069825
239.910000	0.157107	0.187893	19.824667	0.069825
242.939000	0.157107	0.187893	19.824984	0.069825
245.910000	0.157107	0.187893	19.824984	0.069825
248.915000	0.157107	0.187893	19.824667	0.069825
251.901999	0.157107	0.187893	19.824667	0.069825
254.910000	0.157107	0.187893	19.824984	0.069825
257.914000	0.157107	0.187893	19.824984	0.069825
260.914000	0.157107	0.187893	19.824667	0.069825
263.919000	0.157107	0.187893	19.824667	0.069825
266.930000	0.157107	0.187893	19.824350	0.069825
269.911000	0.157107	0.187893	19.824667	0.069825
273.010000	0.157107	0.187893	19.824667	0.069825
275.912000	0.157107	0.187893	19.824667	0.069825
278.922999	0.157107	0.187893	19.824667	0.069825
281.903000	0.157107	0.187893	19.824667	0.069825
284.924000	0.157107	0.187893	19.824667	0.069825
287.985000	0.157107	0.187893	19.824350	0.069825
290.930000	0.157107	0.187893	19.824667	0.069825
293.926000	0.157107	0.187893	19.824350	0.069825
296.907000	0.157107	0.187893	19.824350	0.069825
299.919001	0.157107	0.187576	19.824350	0.069825
302.927000	0.157107	0.187893	19.824350	0.069825
305.921000	0.157107	0.187893	19.824350	0.069825
308.908000	0.157107	0.187576	19.824350	0.069825
311.920000	0.157107	0.187893	19.824350	0.069825
314.924000	0.157107	0.187893	19.824032	0.069825
317.980000	0.157107	0.187893	19.824032	0.069825
321.020000	0.156789	0.187893	19.824350	0.069825
323.910000	0.157107	0.187893	19.824350	0.069825
326.927000	0.157107	0.187893	19.824032	0.069508
329.920000	0.156789	0.187893	19.824350	0.069825
332.982999	0.156789	0.187893	19.824032	0.069825
335.998000	0.156789	0.187893	19.824032	0.069825
338.913000	0.156789	0.187576	19.824350	0.069508
341.934000	0.157107	0.187893	19.823397	0.069825
344.926000	0.156789	0.187576	19.823397	0.069508
347.924000	0.156789	0.187576	19.824032	0.069825
350.915000	0.156789	0.187893	19.823397	0.069825
353.915000	0.157107	0.187576	19.824032	0.069825
356.932000	0.157107	0.187893	19.824032	0.069825
359.915999	0.156789	0.187893	19.824032	0.069825
362.927999	0.156789	0.187893	19.823397	0.069508
365.948000	0.156789	0.187576	19.823397	0.069825
368.947000	0.157107	0.187893	19.823397	0.069508
371.930000	0.157107	0.187893	19.823397	0.069508
374.992000	0.156789	0.187576	19.823397	0.069508
377.918000	0.156789	0.187893	19.823397	0.069508
380.920000	0.156789	0.187576	19.823397	0.069508
383.919000	0.156789	0.187576	19.823080	0.069825
387.009000	0.156789	0.187576	19.823080	0.069508
389.919000	0.156789	0.187893	19.823080	0.069825
393.026000	0.156789	0.187576	19.823080	0.069508
395.922000	0.156789	0.187576	19.823080	0.069825
398.936000	0.156789	0.187893	19.823080	0.069508
401.921000	0.156789	0.187576	19.823080	0.069825
405.010000	0.156789	0.187576	19.823080	0.069825
407.942999	0.156789	0.187576	19.823080	0.069508
410.934999	0.156789	0.187576	19.823080	0.069825
413.922999	0.156789	0.187576	19.823080	0.069508
416.934999	0.156789	0.187576	19.822763	0.069508
420.040000	0.156789	0.187576	19.823080	0.069508
422.923000	0.156789	0.187576	19.822763	0.069508
425.935000	0.156789	0.187576	19.823080	0.069508
428.923000	0.156789	0.187576	19.823080	0.069508
431.959001	0.156789	0.187576	19.822763	0.069508
434.943000	0.156789	0.187576	19.822763	0.069508
438.033000	0.156789	0.187576	19.822763	0.069508
440.974000	0.156789	0.187576	19.822763	0.069508
444.031000	0.156789	0.187576	19.822763	0.069508
446.925000	0.156789	0.187576	19.822763	0.069508
449.941000	0.156789	0.187576	19.823080	0.069508
452.938000	0.156789	0.187576	19.822763	0.069508
456.026000	0.156789	0.187576	19.822445	0.069508
458.993000	0.156155	0.187576	19.822445	0.069508
461.937000	0.156155	0.187576	19.822445	0.069508
464.926000	0.156155	0.187576	19.822445	0.069508
467.941000	0.156155	0.187576	19.822445	0.069508
470.950000	0.156789	0.187576	19.822445	0.069825
473.946000	0.156155	0.187576	19.822445	0.069825
476.939000	0.156155	0.187576	19.822128	0.069508
479.927000	0.156789	0.187576	19.822128	0.069508
482.940000	0.156155	0.187576	19.822128	0.069508
485.940000	0.156155	0.187576	19.822128	0.069508
488.927999	0.156155	0.187576	19.822128	0.069508
491.934999	0.156789	0.187576	19.822128	0.069508
495.031000	0.156155	0.187576	19.822128	0.069508
497.928000	0.156155	0.187576	19.822128	0.069508
500.927000	0.156155	0.187576	19.822128	0.069508
503.928000	0.156155	0.187259	19.822128	0.069508
506.928000	0.156155	0.187576	19.821810	0.069508
509.939000	0.156155	0.187576	19.822128	0.069508
512.960000	0.156155	0.187576	19.822128	0.069508
515.939000	0.156155	0.187576	19.821810	0.069508
518.944000	0.156155	0.187576	19.822128	0.069508
521.937000	0.156789	0.187576	19.821810	0.069508
524.953000	0.156155	0.187259	19.821810	0.069508
527.949000	0.156155	0.187576	19.821810	0.069508
530.929000	0.156155	0.187576	19.821810	0.069191
533.941000	0.156155	0.187259	19.821810	0.069508
536.941000	0.156155	0.187576	19.821810	0.069508
540.029000	0.156155	0.187576	19.822128	0.069508
542.931000	0.156155	0.187576	19.821810	0.069508
546.014999	0.156155	0.187576	19.821810	0.069508
548.942000	0.156155	0.187576	19.821177	0.069508
551.950000	0.156155	0.187576	19.821177	0.069508
554.930000	0.156155	0.187576	19.821177	0.069191
557.942000	0.156155	0.187576	19.821177	0.069191
560.942000	0.155837	0.187259	19.821810	0.069191
564.025000	0.156155	0.187576	19.821810	0.069508
566.930000	0.156155	0.187576	19.821810	0.069508
569.992000	0.156155	0.187576	19.821810	0.069508
572.930000	0.156155	0.187576	19.821810	0.069191
575.946000	0.156155	0.187576	19.821177	0.069508
578.942000	0.156155	0.187576	19.821177	0.069508
581.942000	0.156155	0.187576	19.821810	0.069191
585.016000	0.156155	0.187576	19.821810	0.069191
588.049000	0.156155	0.187576	19.821177	0.069191
590.962000	0.156155	0.187576	19.821177	0.069508
593.983000	0.156155	0.187259	19.820858	0.069508
596.938000	0.156155	0.187576	19.821177	0.069191
599.943000	0.156155	0.187576	19.820858	0.069508
602.943000	0.155837	0.187576	19.820858	0.069191
605.931000	0.156155	0.187576	19.820858	0.069191
608.972000	0.156155	0.187576	19.820858	0.069191
611.951000	0.155837	0.187259	19.820858	0.069191
614.943000	0.156155	0.187576	19.821177	0.069508
617.989999	0.155837	0.187576	19.821177	0.069508
620.943000	0.156155	0.187259	19.820858	0.069191
623.943000	0.156155	0.187576	19.820858	0.069191
626.944000	0.155837	0.187576	19.820858	0.069191
629.951000	0.155837	0.187576	19.820858	0.069508
632.944000	0.155837	0.187259	19.820541	0.069191
635.943000	0.155837	0.187259	19.820858	0.069191
638.943000	0.155837	0.187576	19.820858	0.069191
641.951000	0.155837	0.187259	19.820541	0.069191
644.947000	0.155837	0.187576	19.820858	0.069191
647.931000	0.155837	0.187576	19.820541	0.069191
650.943000	0.155837	0.187576	19.820541	0.069191
653.947000	0.155837	0.187259	19.820858	0.069191
656.943000	0.155837	0.187576	19.820858	0.069191
660.017000	0.155837	0.187259	19.820858	0.069191
662.943000	0.155837	0.187259	19.820858	0.069191
665.932000	0.155837	0.187259	19.820541	0.069191
668.963999	0.155837	0.187259	19.820858	0.069191
671.939000	0.155837	0.187576	19.820858	0.069191
674.943000	0.155837	0.187259	19.820541	0.069191
677.947000	0.155837	0.187259	19.820541	0.069191
680.939000	0.155837	0.187576	19.820541	0.069191
683.943000	0.155837	0.187259	19.820541	0.069191
686.931000	0.155837	0.187259	19.820541	0.069191
689.952001	0.155837	0.187259	19.820541	0.069191
692.942999	0.155837	0.187259	19.820541	0.069191
695.932000	0.155837	0.187259	19.820541	0.069191
698.944000	0.155837	0.187259	19.820541	0.069191
701.943000	0.155837	0.187259	19.820541	0.069191
704.931000	0.155837	0.187259	19.820541	0.069191
707.943000	0.155837	0.187259	19.820541	0.069191
710.951000	0.155837	0.187259	19.820223	0.069191
713.939000	0.155837	0.187259	19.820223	0.069191
716.948000	0.155837	0.187259	19.820223	0.069191
719.940000	0.155837	0.187259	19.820223	0.069191
722.932000	0.155837	0.187259	19.820223	0.069191
725.952000	0.155837	0.187259	19.820223	0.069191
728.948000	0.155520	0.187259	19.820223	0.069191
731.944000	0.155837	0.187259	19.820223	0.069191
734.944000	0.155837	0.187259	19.819906	0.069191
737.932000	0.155837	0.187259	19.820223	0.069191
740.940000	0.155837	0.187259	19.819906	0.069191
743.945000	0.155520	0.187259	19.820223	0.069191
746.944000	0.155520	0.187259	19.820223	0.069191
749.944999	0.155837	0.187259	19.819906	0.069191
752.948000	0.155520	0.187259	19.819906	0.069191
755.953000	0.155520	0.187259	19.819906	0.069191
758.944000	0.155837	0.187259	19.819906	0.069191
761.932000	0.155837	0.187259	19.819271	0.069191
764.952000	0.155837	0.187259	19.819906	0.069191
767.944000	0.155837	0.187259	19.819906	0.069191
770.952000	0.155520	0.187259	19.819906	0.069191
773.952000	0.155520	0.187259	19.819906	0.069191
776.933000	0.155520	0.187259	19.819271	0.069191
779.952000	0.155520	0.187259	19.819271	0.069191
782.945000	0.155520	0.187259	19.819271	0.069191
785.952000	0.155520	0.187259	19.819906	0.069191
788.944000	0.155520	0.187259	19.819271	0.069191
791.944000	0.155520	0.187259	19.819271	0.069191
794.961000	0.155520	0.187259	19.819906	0.069191
797.932000	0.155520	0.187259	19.819906	0.069191
801.031000	0.155837	0.187259	19.819271	0.069191
803.940000	0.155520	0.187259	19.819271	0.069191
806.952000	0.155520	0.187259	19.819271	0.068873
809.948000	0.155520	0.187259	19.819271	0.069191
813.040000	0.155520	0.187259	19.819271	0.069191
815.974000	0.155520	0.187259	19.819271	0.069191
818.942000	0.155520	0.187259	19.819271	0.069191
821.951000	0.155520	0.187259	19.819271	0.069191
824.934999	0.155520	0.187259	19.819271	0.068873
827.943000	0.155520	0.187259	19.819271	0.069191
830.948000	0.155520	0.187259	19.819271	0.069191
833.954000	0.155520	0.187259	19.819271	0.069191
836.944000	0.155520	0.187259	19.819271	0.069191
840.044000	0.155520	0.187259	19.818954	0.069191
842.956000	0.155520	0.187259	19.818954	0.069191
845.948000	0.155520	0.187259	19.819271	0.069191
848.942999	0.155520	0.186941	19.818954	0.068873
851.948000	0.155520	0.187259	19.818954	0.069191
854.973000	0.155520	0.187259	19.818954	0.068873
857.948000	0.155520	0.187259	19.818954	0.069191
861.010000	0.155520	0.187259	19.818954	0.068873
863.953000	0.155520	0.187259	19.818954	0.068873
866.948000	0.155520	0.187259	19.818954	0.068873
869.949000	0.155520	0.187259	19.818954	0.068873
872.949000	0.155520	0.187259	19.818954	0.069191
875.948000	0.155520	0.187259	19.818954	0.068873
878.944000	0.155520	0.187259	19.818954	0.068873
881.948999	0.155520	0.187259	19.818636	0.069191
884.948000	0.155520	0.187259	19.818636	0.068873
887.944000	0.155520	0.186941	19.818636	0.069191
891.052000	0.155520	0.187259	19.818636	0.068873
893.939000	0.155203	0.187259	19.818636	0.068873
896.976000	0.155520	0.187259	19.818636	0.068873
899.940000	0.155520	0.187259	19.818636	0.069191
902.959000	0.155520	0.187259	19.818319	0.068873
905.952000	0.155203	0.187259	19.818319	0.068873
909.005000	0.155520	0.187259	19.818319	0.068873
911.940000	0.155520	0.187259	19.818636	0.069191
914.940000	0.155520	0.186941	19.818319	0.068873
917.940000	0.155520	0.186941	19.818319	0.068873
920.940000	0.155520	0.186941	19.818636	0.069191
923.960000	0.155203	0.186941	19.818319	0.068873
926.948000	0.155520	0.187259	19.818636	0.068873
929.956000	0.155520	0.187259	19.818636	0.068873
932.948000	0.155203	0.187259	19.818636	0.068873
935.948000	0.155203	0.186941	19.818319	0.069191
938.952000	0.155520	0.187259	19.818319	0.068873
941.952000	0.155520	0.187259	19.818319	0.068873
944.940000	0.155203	0.186941	19.818319	0.068873
947.952000	0.155203	0.186941	19.818319	0.068873
950.952001	0.155203	0.187259	19.818319	0.068873
954.018000	0.155203	0.187259	19.818319	0.068873
956.950000	0.155520	0.186941	19.818319	0.068873
959.960999	0.155203	0.187259	19.818319	0.068873
963.016000	0.155203	0.186941	19.818003	0.068873
965.949000	0.155520	0.186941	19.818319	0.068873
968.954000	0.155203	0.187259	19.818003	0.068873
972.050000	0.155203	0.186941	19.818319	0.068873
974.953000	0.155203	0.186941	19.818319	0.068873
977.953000	0.155203	0.186941	19.818319	0.068873
980.954000	0.155520	0.186941	19.818003	0.068873
983.954000	0.155203	0.186941	19.818003	0.068873
987.057000	0.155203	0.186941	19.818319	0.068873
989.943000	0.155203	0.186941	19.818003	0.068873
992.954000	0.155203	0.186941	19.818003	0.068873
995.962000	0.155203	0.186941	19.818319	0.068873
998.959000	0.155203	0.186941	19.818003	0.068873
1001.945000	0.155520	0.186941	19.818003	0.068873
1004.944000	0.155203	0.186941	19.818319	0.068873
1007.956000	0.155203	0.186941	19.818003	0.068873
1011.035000	0.155203	0.186941	19.818003	0.068873
1013.960999	0.155203	0.186941	19.818003	0.068873
1016.956000	0.155203	0.186941	19.818003	0.068873
1019.956000	0.155203	0.186941	19.817368	0.068873
1022.956000	0.155203	0.186941	19.818003	0.068873
1025.944000	0.155203	0.186941	19.818003	0.068873
1029.051000	0.155203	0.186941	19.818003	0.069191
1031.944000	0.155203	0.186941	19.818003	0.068873
1034.956000	0.155203	0.186941	19.818003	0.068873
1037.956000	0.155203	0.186941	19.817368	0.068873
1041.033999	0.155203	0.186941	19.818003	0.068873
1043.953000	0.155203	0.186941	19.817368	0.068873
1046.957000	0.155203	0.186941	19.817368	0.068873
1049.990000	0.155203	0.186941	19.817368	0.068873
1052.954000	0.155203	0.186941	19.817368	0.068873
1055.987000	0.155203	0.186941	19.817368	0.068873
1058.959000	0.155203	0.186941	19.817368	0.068873
1061.948000	0.155203	0.186941	19.817368	0.068873
1064.959000	0.155203	0.186941	19.817368	0.068873
1067.954000	0.155203	0.186941	19.817368	0.068873
1071.026000	0.155203	0.186941	19.817368	0.068873
1073.959000	0.155203	0.186941	19.817368	0.068873
1076.959000	0.155203	0.186941	19.817049	0.068873
1079.959000	0.155203	0.186941	19.817049	0.068873
1082.959000	0.155203	0.186941	19.817049	0.068873
1085.959000	0.155203	0.186941	19.817368	0.068873
1088.948000	0.155203	0.186941	19.817368	0.068556
1091.955000	0.155203	0.186941	19.817049	0.068873
1094.967000	0.155203	0.186941	19.817049	0.068873
1097.960000	0.155203	0.186941	19.817049	0.068873
1100.960000	0.155203	0.186941	19.817368	0.068556
1103.955000	0.155203	0.186941	19.817049	0.068873
1107.067000	0.154885	0.186941	19.817049	0.068873
1109.959000	0.154885	0.186941	19.817049	0.068873
1112.963999	0.155203	0.186941	19.817049	0.068873
1115.959000	0.155203	0.186941	19.817049	0.068873
1118.959000	0.155203	0.186941	19.817049	0.068873
1121.960000	0.155203	0.186941	19.817049	0.068873
1124.948000	0.155203	0.186941	19.817049	0.068873
1127.960000	0.154885	0.186941	19.817049	0.068556
1130.962000	0.155203	0.186941	19.817049	0.068873
1133.961000	0.155203	0.186941	19.817049	0.068873
1136.963000	0.154885	0.186941	19.816732	0.068873
1139.970000	0.154885	0.186941	19.817049	0.068873
1143.045000	0.154885	0.186941	19.817049	0.068873
1146.070000	0.154885	0.186941	19.816732	0.068873
1148.958000	0.154885	0.186941	19.816732	0.068556
1151.967000	0.155203	0.186941	19.816732	0.068873
1154.962000	0.154885	0.186941	19.816732	0.068873
1157.999000	0.154885	0.186941	19.816732	0.068556
1160.967000	0.155203	0.186307	19.816732	0.068873
1163.962000	0.154885	0.186941	19.816732	0.068556
1166.962000	0.154885	0.186941	19.816732	0.068873
1169.962000	0.154885	0.186941	19.816732	0.068873
1173.020000	0.154885	0.186941	19.817049	0.068556
1175.963000	0.154885	0.186941	19.816732	0.068556
1178.962000	0.154885	0.186941	19.816732	0.068873
1181.975000	0.154885	0.186941	19.816416	0.068556
1184.950000	0.154885	0.186941	19.816732	0.068556
1187.962000	0.154885	0.186941	19.817049	0.068556
1190.950000	0.155203	0.186941	19.816732	0.068556
1193.962000	0.154885	0.186941	19.816732	0.068556
1196.962000	0.154885	0.186941	19.817049	0.068556
1199.962000	0.154885	0.186941	19.816732	0.068556
1202.962000	0.154885	0.186941	19.817049	0.068556
1205.952000	0.154885	0.186941	19.816732	0.068556
1208.963000	0.154885	0.186941	19.817049	0.068556
1211.953000	0.154885	0.186941	19.817049	0.068873
1214.952000	0.154885	0.186941	19.816732	0.068556
1217.952000	0.154885	0.186941	19.816732	0.068556
1220.952000	0.154885	0.186307	19.816732	0.068556
1223.960000	0.154885	0.186307	19.816732	0.068556
1226.952000	0.154885	0.186941	19.817049	0.068556
1229.964000	0.154885	0.186941	19.816732	0.068556
1232.952000	0.154885	0.186307	19.816732	0.068556
1235.964000	0.154885	0.186307	19.816732	0.068873
1238.972000	0.154885	0.186941	19.816416	0.068556
1241.963999	0.154885	0.186941	19.816732	0.068556
1244.960999	0.154885	0.186307	19.816732	0.068556
1247.966000	0.154885	0.186307	19.816732	0.068556
1250.965000	0.154885	0.186941	19.816732	0.068556
1253.961000	0.154885	0.186941	19.816732	0.068556
1256.954000	0.154885	0.186941	19.816732	0.068556
1259.978001	0.154885	0.186941	19.816732	0.068556
1262.953000	0.154885	0.186307	19.816416	0.068556
1266.025000	0.154885	0.186941	19.816416	0.068556
1268.953000	0.154885	0.186307	19.816416	0.068556
1271.953000	0.154885	0.186307	19.816097	0.068556
1274.974000	0.154885	0.186307	19.816416	0.068556
1277.970000	0.154885	0.186307	19.816416	0.068556
1280.971000	0.154885	0.186307	19.816416	0.068556
1283.987000	0.154885	0.186941	19.816416	0.068556
1286.962000	0.154885	0.186941	19.816416	0.068556
1289.967000	0.154885	0.186941	19.816097	0.068556
1292.966000	0.154885	0.186307	19.816416	0.068556
1295.955000	0.154885	0.186941	19.816416	0.068556
1298.955000	0.154885	0.186941	19.816416	0.068556
1301.963000	0.154885	0.186941	19.816097	0.068556
1304.956000	0.154885	0.186307	19.816097	0.068873
1307.967000	0.154250	0.186307	19.816097	0.068556
1310.968000	0.154250	0.186941	19.816416	0.068556
1314.059000	0.154885	0.186941	19.816097	0.068556
1316.968999	0.154885	0.186941	19.816097	0.068556
1319.974999	0.154250	0.186307	19.816097	0.068556
1322.964000	0.154250	0.186307	19.816097	0.068556
1325.984000	0.154885	0.186307	19.816097	0.068556
1328.980000	0.154885	0.186307	19.816097	0.068556
1331.968000	0.154885	0.186307	19.816416	0.068556
1334.968000	0.154885	0.186307	19.816097	0.068556
1337.998000	0.154885	0.186307	19.816097	0.068556
1340.977000	0.154250	0.186307	19.816097	0.068556
1343.986000	0.154250	0.186307	19.816416	0.068556
1346.981000	0.154885	0.186307	19.816097	0.068556
1349.969000	0.154885	0.186307	19.816097	0.068556
1352.958000	0.154885	0.186307	19.816097	0.068556
1355.958000	0.154885	0.186307	19.816097	0.068556
1358.971000	0.154250	0.186307	19.816097	0.067921
1361.959000	0.154250	0.186307	19.816097	0.068556
1364.958000	0.154885	0.186307	19.816097	0.068556
1367.966000	0.154250	0.186307	19.816097	0.068556
1370.970000	0.154885	0.186307	19.816097	0.068556
1373.970999	0.154250	0.186307	19.816097	0.068556
1376.986000	0.154250	0.186307	19.816097	0.068556
1379.979000	0.154885	0.186307	19.816097	0.068556
1382.979000	0.154250	0.186307	19.815781	0.068556
1386.039000	0.154250	0.186307	19.815781	0.068556
1388.979000	0.154250	0.186307	19.815781	0.068556
1391.971000	0.154250	0.186307	19.816097	0.068556
1394.974999	0.154250	0.186307	19.816097	0.068556
1398.033000	0.154250	0.186307	19.815781	0.068556
1400.967000	0.154250	0.186307	19.815781	0.068556
1403.976000	0.154250	0.186307	19.815145	0.068556
1406.967000	0.154250	0.186307	19.815781	0.068556
1410.009000	0.154250	0.186307	19.815781	0.067921
1412.975000	0.154250	0.186307	19.815781	0.068556
1415.972000	0.154250	0.186307	19.815781	0.068556
1419.056000	0.154250	0.186307	19.815781	0.068556
1421.960999	0.154250	0.186307	19.815781	0.068556
1425.075000	0.154250	0.186307	19.815781	0.068556
1427.976000	0.154250	0.186307	19.815781	0.068556
1430.960000	0.154250	0.186307	19.815781	0.068556
1433.960000	0.154250	0.186307	19.815781	0.068556
1436.981000	0.154250	0.186307	19.815781	0.068556
1439.973000	0.154250	0.186307	19.815781	0.068556
1442.973000	0.154250	0.186307	19.815781	0.068556
1446.052999	0.154250	0.186307	19.815145	0.068556
1449.029999	0.154250	0.186307	19.815781	0.068556
1451.960999	0.154250	0.186307	19.815145	0.067921
1454.974000	0.154250	0.186307	19.815145	0.068556
1457.981000	0.154250	0.186307	19.815781	0.068556
1460.961000	0.154250	0.186307	19.815145	0.068556
1463.994000	0.154250	0.186307	19.815145	0.068556
1466.982000	0.154250	0.186307	19.815145	0.067921
1470.068000	0.154250	0.186307	19.815145	0.068556
1472.978000	0.154250	0.186307	19.815145	0.068556
1475.969000	0.154250	0.186307	19.815145	0.068556
1478.974000	0.154250	0.186307	19.815145	0.068556
1481.974000	0.154250	0.186307	19.815145	0.067921
1484.971000	0.154250	0.186307	19.814829	0.067921
1487.980000	0.154250	0.186307	19.814829	0.068556
1490.963000	0.154250	0.186307	19.814829	0.067921
1493.975000	0.153933	0.186307	19.815145	0.068556
1496.975000	0.154250	0.186307	19.815145	0.068556
1499.970999	0.154250	0.186307	19.815145	0.067921
1502.974999	0.154250	0.186307	19.815145	0.068556
1505.976000	0.154250	0.186307	19.815145	0.067921
1508.974999	0.154250	0.186307	19.814829	0.067921
1511.972000	0.154250	0.186307	19.815145	0.068556
1514.978000	0.154250	0.186307	19.814829	0.068556
1517.977000	0.154250	0.186307	19.814829	0.068556
1520.977000	0.154250	0.186307	19.814829	0.068556
1523.977000	0.154250	0.186307	19.815145	0.068556
1526.978000	0.154250	0.186307	19.814829	0.068556
1529.974000	0.154250	0.186307	19.814829	0.068556
1532.978000	0.154250	0.186307	19.814829	0.067921
1536.004000	0.154250	0.186307	19.814829	0.067921
1539.014000	0.154250	0.186307	19.815145	0.067921
1542.078000	0.154250	0.186307	19.814829	0.068556
1544.987000	0.154250	0.186307	19.815145	0.068556
1547.979000	0.154250	0.186307	19.814829	0.067921
1550.982999	0.154250	0.186307	19.814829	0.067921
1553.987000	0.154250	0.186307	19.814829	0.067921
1556.967999	0.154250	0.186307	19.814510	0.068556
1560.016000	0.153933	0.186307	19.814829	0.067921
1562.967000	0.154250	0.186307	19.814829	0.068556
1565.967000	0.154250	0.186307	19.814194	0.067921
1568.967000	0.154250	0.186307	19.814510	0.067921
1571.968000	0.154250	0.186307	19.814510	0.067921
1574.980000	0.154250	0.186307	19.814510	0.067921
1577.967999	0.154250	0.186307	19.814510	0.067921
1580.981000	0.153933	0.186307	19.814510	0.067921
1583.981000	0.153933	0.186307	19.814829	0.067921
1586.976000	0.154250	0.186307	19.814510	0.067921
1589.988000	0.154250	0.186307	19.814829	0.067921
1592.980000	0.154250	0.185989	19.814510	0.067921
1595.980000	0.154250	0.186307	19.814510	0.067921
1598.980000	0.154250	0.185989	19.814510	0.067921
1601.968999	0.153933	0.186307	19.814510	0.067921
1604.984000	0.153933	0.185989	19.814510	0.067921
1607.967999	0.154250	0.186307	19.814194	0.067921
1610.976000	0.154250	0.185989	19.814510	0.067921
1613.977000	0.154250	0.185989	19.814510	0.067921
1617.048000	0.154250	0.185989	19.814510	0.067921
1619.981000	0.153933	0.186307	19.814510	0.067921
1623.035000	0.153933	0.186307	19.814194	0.067921
1625.982000	0.154250	0.185989	19.814510	0.067921
1628.970999	0.153933	0.186307	19.814510	0.067921
1631.981999	0.153933	0.185989	19.814510	0.067921
1634.978000	0.153933	0.186307	19.814510	0.067921
1637.978000	0.153933	0.186307	19.814194	0.067921
1640.978000	0.153933	0.186307	19.814510	0.067921
1643.982000	0.154250	0.185989	19.814510	0.067921
1646.982000	0.153933	0.185989	19.814510	0.067921
1649.982000	0.153933	0.186307	19.814194	0.067921
1653.060000	0.154250	0.185989	19.814510	0.067921
1655.978000	0.153933	0.185989	19.814510	0.067921
1658.981999	0.153933	0.185989	19.814510	0.067921
1662.059999	0.154250	0.185989	19.814510	0.067921
1664.995000	0.153933	0.185989	19.814194	0.068556
1667.983000	0.153933	0.185989	19.814194	0.067921
1670.983000	0.154250	0.185989	19.814194	0.067921
1673.982000	0.153933	0.185989	19.814194	0.067921
1677.045000	0.153933	0.186307	19.814510	0.067921
1680.007999	0.153933	0.186307	19.814194	0.067921
1682.972000	0.153933	0.186307	19.814510	0.067921
1685.983000	0.153933	0.185989	19.814194	0.067921
1689.016000	0.153933	0.185989	19.814510	0.067921
1691.996000	0.153933	0.185989	19.814510	0.067921
1694.988000	0.153933	0.185989	19.814194	0.067921
1697.971000	0.153933	0.185989	19.814194	0.067921
1700.991000	0.153933	0.185989	19.814194	0.067921
1703.971000	0.153933	0.185989	19.814194	0.067921
1706.982999	0.153933	0.185989	19.814194	0.067921
1709.983000	0.153933	0.186307	19.814194	0.067921
1712.972000	0.153933	0.185989	19.814194	0.067921
1715.972000	0.153933	0.185989	19.814194	0.067921
1718.984000	0.153933	0.185989	19.814510	0.067921
1721.984000	0.153933	0.185989	19.814194	0.067921
1724.973000	0.153933	0.185989	19.814194	0.067921
1727.984000	0.153933	0.185989	19.814194	0.067921
1730.972000	0.153933	0.185989	19.813875	0.067921
1733.972000	0.153933	0.185989	19.813875	0.067921
1736.972000	0.153933	0.185989	19.813875	0.067921
1739.984000	0.153933	0.185989	19.813875	0.067921
1742.984000	0.153933	0.185989	19.813875	0.067921
1745.985000	0.153933	0.185989	19.813875	0.067921
1748.972000	0.153616	0.185989	19.813875	0.067921
1751.973000	0.153933	0.185989	19.813875	0.067921
1754.992000	0.153933	0.185989	19.814194	0.067921
1758.000999	0.153933	0.185989	19.813875	0.067921
1760.996000	0.153933	0.185989	19.813875	0.067921
1763.980000	0.153933	0.185989	19.813875	0.067921
1766.988000	0.153933	0.185989	19.813875	0.067921
1769.980000	0.153933	0.185989	19.813875	0.067921
1772.972000	0.153933	0.185989	19.813875	0.067921
1775.984000	0.153933	0.185989	19.813875	0.067921
1778.985000	0.153933	0.185989	19.814194	0.067921
1781.993000	0.153933	0.185989	19.813875	0.067921
1785.003000	0.153933	0.185989	19.813875	0.067921
1787.981000	0.153933	0.185989	19.813875	0.067921
1790.986000	0.153933	0.185989	19.813875	0.067921
1793.994000	0.153933	0.185989	19.813242	0.067921
1797.077000	0.153933	0.185989	19.813875	0.067921
1799.986000	0.153616	0.185989	19.813875	0.067921
1803.081000	0.153933	0.185989	19.813875	0.067921
1806.002000	0.153933	0.185989	19.813875	0.067921
1808.991000	0.153933	0.185989	19.813242	0.067921
1811.995000	0.153933	0.185989	19.813242	0.067921
1815.066000	0.153933	0.185989	19.813242	0.067921
1818.007000	0.153616	0.185989	19.813875	0.067921
1820.983000	0.153933	0.185989	19.813875	0.067921
1824.004000	0.153933	0.185989	19.813242	0.067921
1827.087000	0.153933	0.185989	19.813242	0.067921
1829.987000	0.153616	0.185989	19.813242	0.067921
1832.987000	0.153933	0.185989	19.813875	0.067604
1835.995000	0.153933	0.185989	19.813875	0.067921
1838.987000	0.153933	0.185989	19.813242	0.067921
1841.995000	0.153933	0.185989	19.813875	0.067921
1845.040999	0.153933	0.185989	19.813242	0.067921
1847.975000	0.153933	0.185989	19.813242	0.067921
1851.076000	0.153933	0.185989	19.813242	0.067921
1853.993000	0.153933	0.185989	19.812923	0.067921
1856.985000	0.153933	0.185989	19.813242	0.067921
1859.995000	0.153933	0.185989	19.813242	0.067921
1862.978000	0.153933	0.185989	19.813242	0.067921
1865.979000	0.153616	0.185989	19.813242	0.067604
1868.990000	0.153933	0.185989	19.813242	0.067921
1871.998000	0.153933	0.185989	19.813242	0.067604
1875.056000	0.153616	0.185989	19.813242	0.067604
1877.986000	0.153933	0.185989	19.813242	0.067921
1881.011000	0.153933	0.185989	19.813242	0.067604
1884.062000	0.153616	0.185989	19.813242	0.067604
1887.060000	0.153616	0.185989	19.813242	0.067604
1889.999000	0.153616	0.185989	19.812923	0.067604
1893.069000	0.153616	0.185989	19.813242	0.067921
1895.996000	0.153933	0.185989	19.813242	0.067604
1898.992000	0.153616	0.185989	19.813242	0.067921
1901.992000	0.153616	0.185989	19.813242	0.067604
1904.992000	0.153616	0.185989	19.813242	0.067921
1907.988000	0.153616	0.185989	19.813242	0.067604
1911.000000	0.153933	0.185989	19.813242	0.067921
1913.980000	0.153616	0.185989	19.813242	0.067604
1917.079000	0.153933	0.185989	19.813242	0.067604
1919.992000	0.153616	0.185989	19.813242	0.067921
1922.992000	0.153616	0.185989	19.813875	0.067921
1925.980000	0.153616	0.185989	19.813242	0.067604
1928.992000	0.153933	0.185989	19.813242	0.067604
1932.009000	0.153616	0.185989	19.813242	0.067921
1934.988000	0.153616	0.185989	19.813242	0.067604
1937.996000	0.153616	0.185989	19.812923	0.067604
1940.996999	0.153616	0.185989	19.812923	0.067604
1944.002000	0.153616	0.185989	19.813242	0.067604
1946.993999	0.153616	0.185989	19.812923	0.067604
1950.002000	0.153616	0.185989	19.812923	0.067604
1952.982000	0.153616	0.185672	19.812923	0.067604
1956.006000	0.153616	0.185672	19.812923	0.067604
1958.983000	0.153616	0.185672	19.812923	0.067604
1961.986000	0.153616	0.185989	19.812923	0.067604
1964.990000	0.153616	0.185989	19.812923	0.067604
1967.993999	0.153933	0.185989	19.812923	0.067921
1970.993999	0.153616	0.185989	19.812923	0.067604
1973.990000	0.153616	0.185989	19.812607	0.067921
1976.981999	0.153616	0.185672	19.812923	0.067604
1979.996000	0.153616	0.185989	19.812923	0.067604
1982.995000	0.153616	0.185672	19.812607	0.067604
1985.991000	0.153616	0.185989	19.812607	0.067604
1989.095000	0.153616	0.185672	19.812923	0.067604
1991.984000	0.153616	0.185989	19.812607	0.067604
1995.046000	0.153616	0.185989	19.812607	0.067604
1997.996000	0.153616	0.185989	19.812607	0.067604
2000.995000	0.153616	0.185989	19.812923	0.067604
2003.995000	0.153616	0.185989	19.812607	0.067604
2007.054000	0.153616	0.185672	19.812607	0.067604
2010.003000	0.153616	0.185989	19.812607	0.067604
2012.991000	0.153616	0.185989	19.812607	0.067604
2015.995000	0.153616	0.185989	19.812607	0.067604
2019.003000	0.153616	0.185989	19.812923	0.067604
2021.991000	0.153616	0.185989	19.812923	0.067604
2024.984000	0.153616	0.185672	19.812923	0.067604
2027.993000	0.153616	0.185989	19.812607	0.067604
2031.005000	0.153616	0.185989	19.812923	0.067604
2033.993000	0.153616	0.185989	19.812607	0.067604
2036.986000	0.153616	0.185672	19.812923	0.067921
2039.993000	0.153616	0.185989	19.812923	0.067604
2042.996999	0.153616	0.185672	19.812607	0.067604
2045.993000	0.153616	0.185989	19.812607	0.067604
2049.000999	0.153616	0.185989	19.812923	0.067604
2052.057000	0.153616	0.185672	19.812607	0.067604
2054.998000	0.153616	0.185672	19.812607	0.067604
2057.998000	0.153616	0.185989	19.812923	0.067604
2060.999000	0.153616	0.185989	19.812607	0.067604
2063.999000	0.153616	0.185672	19.812607	0.067604
2067.000000	0.153616	0.185989	19.812923	0.067604
2069.987000	0.153616	0.185672	19.812923	0.067604
2073.006000	0.153616	0.185672	19.812923	0.067604
2075.995000	0.153616	0.185672	19.812607	0.067604
2079.000000	0.153616	0.185672	19.812923	0.067604
2081.995000	0.153616	0.185672	19.812923	0.067604
2085.003000	0.153616	0.185672	19.812923	0.067604
2088.000000	0.153616	0.185672	19.812607	0.067604
2091.003000	0.153616	0.185989	19.812607	0.067604
2094.021000	0.153616	0.185672	19.812607	0.067604
2096.988000	0.153616	0.185672	19.812607	0.067604
2100.003999	0.153298	0.185672	19.812607	0.067604
2103.007999	0.153616	0.185672	19.812288	0.067604
2106.009000	0.153616	0.185989	19.812607	0.067604
2109.008000	0.153616	0.185672	19.812607	0.067604
2112.062000	0.153616	0.185672	19.812607	0.067604
2115.006000	0.153616	0.185989	19.812607	0.067604
2117.990000	0.153616	0.185989	19.812607	0.067604
2120.996999	0.153298	0.185672	19.812288	0.067604
2123.991000	0.153616	0.185672	19.812288	0.067604
2126.998000	0.153298	0.185672	19.812288	0.067604
2130.002000	0.153616	0.185672	19.812288	0.067604
2133.002000	0.153298	0.185989	19.812288	0.067604
2136.040000	0.153616	0.185989	19.812288	0.067604
2138.990000	0.153616	0.185672	19.812288	0.067604
2141.990000	0.153298	0.185672	19.812288	0.067604
2144.990000	0.153298	0.185672	19.812288	0.067604
2147.989999	0.153298	0.185672	19.812288	0.067604
2151.011000	0.153616	0.185672	19.811972	0.067286
2154.003000	0.153298	0.185672	19.812288	0.067604
2157.003000	0.153616	0.185672	19.812288	0.067604
2160.004000	0.153298	0.185672	19.812288	0.067604
2163.004000	0.153616	0.185672	19.812288	0.067604
2166.091000	0.153616	0.185672	19.812607	0.067604
2168.993000	0.153298	0.185672	19.812288	0.067604
2171.992001	0.153298	0.185672	19.812288	0.067604
2175.007999	0.153298	0.185672	19.812288	0.067286
2178.000000	0.153298	0.185672	19.812288	0.067604
2180.993000	0.153298	0.185672	19.812288	0.067286
2184.004000	0.153298	0.185672	19.812288	0.067604
2186.992000	0.153616	0.185672	19.811972	0.067604
2190.088000	0.153298	0.185672	19.812288	0.067604
2192.993000	0.153616	0.185672	19.812288	0.067604
2196.035000	0.153616	0.185672	19.812288	0.067604
2199.079999	0.153298	0.185672	19.812288	0.067604
2202.094000	0.153298	0.185672	19.811972	0.067604
2205.059999	0.153298	0.185672	19.812288	0.067286
2208.007000	0.153298	0.185672	19.811972	0.067286
2211.014000	0.153298	0.185672	19.811972	0.067604
2214.068000	0.153298	0.185672	19.812288	0.067604
2217.014000	0.153298	0.185672	19.811972	0.067604
2220.006000	0.153616	0.185672	19.812288	0.067604
2223.002000	0.153298	0.185672	19.811972	0.067604
2226.102000	0.153298	0.185672	19.812288	0.067286
2229.014999	0.153298	0.185672	19.811972	0.067604
2232.007999	0.153298	0.185672	19.811972	0.067286
2235.007999	0.153298	0.185672	19.811337	0.067604
2238.073000	0.153298	0.185672	19.811972	0.067286
2241.008000	0.153298	0.185672	19.811972	0.067286
2244.007000	0.153298	0.185672	19.811337	0.067286
2247.013000	0.153298	0.185672	19.811972	0.067604
2249.996000	0.153298	0.185672	19.811972	0.067604
2253.017000	0.153298	0.185672	19.811972	0.067604
2256.014000	0.153298	0.185672	19.811972	0.067286
2259.011000	0.153298	0.185672	19.811972	0.067286
2261.999000	0.153616	0.185672	19.811972	0.067604
2265.046000	0.153298	0.185672	19.811972	0.067604
2268.006000	0.153298	0.185672	19.811972	0.067604
2270.998000	0.153298	0.185672	19.811972	0.067286
2273.998000	0.153298	0.185672	19.811972	0.067286
2277.010000	0.153298	0.185672	19.811972	0.067604
2280.014000	0.153298	0.185672	19.811972	0.067604
2283.010000	0.153298	0.185672	19.811972	0.067286
2286.097000	0.153298	0.185672	19.811337	0.067604
2289.006000	0.153298	0.185672	19.811972	0.067604
2292.018000	0.153298	0.185672	19.811972	0.067286
2295.118001	0.153298	0.185672	19.811337	0.067286
2297.999000	0.153298	0.185672	19.811337	0.067604
2301.028000	0.153298	0.185672	19.811337	0.067286
2304.000000	0.153298	0.185672	19.811337	0.067286
2307.000000	0.153298	0.185672	19.811337	0.067286
2310.019000	0.153298	0.185672	19.811337	0.067286
2313.016000	0.153298	0.185672	19.811337	0.067286
2316.008000	0.153298	0.185672	19.811337	0.067286
2319.000000	0.153298	0.185672	19.811337	0.067604
2322.007000	0.153298	0.185672	19.811337	0.067286
2325.090000	0.153298	0.185672	19.811337	0.067604
2328.013000	0.153298	0.185672	19.811337	0.067286
2331.013000	0.153298	0.185672	19.811337	0.067286
2334.012000	0.153298	0.185672	19.811337	0.067604
2337.000000	0.153298	0.185672	19.811337	0.067286
2340.007999	0.153298	0.185354	19.811337	0.067286
2343.012000	0.153298	0.185672	19.811020	0.067286
2346.098000	0.153298	0.185672	19.811337	0.067604
2349.028000	0.153298	0.185672	19.811020	0.067286
2352.033000	0.153298	0.185672	19.811337	0.067604
2355.012000	0.152981	0.185672	19.811020	0.067286
2358.113000	0.153298	0.185672	19.811337	0.067286
2361.007999	0.153298	0.185672	19.811337	0.067604
2364.073999	0.153298	0.185672	19.811020	0.067286
2367.019000	0.153298	0.185672	19.811020	0.067604
2370.095000	0.153298	0.185672	19.811020	0.067286
2373.012000	0.153298	0.185672	19.811337	0.067286
2376.012000	0.153298	0.185672	19.811020	0.067286
2379.012000	0.153298	0.185672	19.811020	0.067286
2382.007999	0.153298	0.185672	19.811020	0.067286
2385.020000	0.153298	0.185672	19.811337	0.067286
2388.020000	0.153298	0.185672	19.811337	0.067286
2391.020000	0.153298	0.185672	19.811337	0.067286
2394.012000	0.153298	0.185672	19.811020	0.067604
2397.008000	0.153298	0.185672	19.811020	0.067286
2400.012000	0.152981	0.185672	19.811020	0.067604
2403.009000	0.153298	0.185672	19.811020	0.067604
2406.009000	0.153298	0.185672	19.811020	0.067286
2409.008999	0.153298	0.185672	19.811337	0.067286
2412.121000	0.153298	0.185672	19.811020	0.067286
2415.122000	0.153298	0.185672	19.811020	0.067286
2418.002000	0.153298	0.185672	19.811020	0.067286
2421.002000	0.152981	0.185672	19.811020	0.067286
2424.009000	0.152981	0.185672	19.811020	0.067286
2427.064000	0.153298	0.185672	19.811020	0.067286
2430.002000	0.153298	0.185672	19.811020	0.067286
2433.080000	0.153298	0.185672	19.810701	0.067286
2436.046000	0.153298	0.185672	19.811020	0.067286
2439.021000	0.153298	0.185672	19.811020	0.067286
2442.021000	0.153298	0.185672	19.811020	0.067286
2445.014000	0.153298	0.185672	19.811020	0.067286
2448.001000	0.153298	0.185354	19.811020	0.067286
2451.104000	0.153298	0.185672	19.811020	0.067286
2454.027000	0.153298	0.185354	19.810701	0.067286
2457.002000	0.152981	0.185672	19.811020	0.067286
2460.022999	0.152981	0.185354	19.811020	0.067286
2463.059000	0.152981	0.185672	19.811020	0.067286
2466.022000	0.152981	0.185672	19.811020	0.067286
2469.018000	0.152981	0.185672	19.811020	0.067286
2472.002000	0.153298	0.185354	19.810701	0.067286
2475.023000	0.152981	0.185672	19.810701	0.067286
2478.077000	0.152981	0.185354	19.811020	0.067286
2481.008000	0.153298	0.185672	19.811020	0.067286
2484.094000	0.153298	0.185672	19.810701	0.067286
2487.054000	0.153298	0.185354	19.810701	0.067286
2490.104000	0.152981	0.185672	19.810701	0.067286
2493.092000	0.153298	0.185354	19.810701	0.067286
2496.121000	0.152981	0.185354	19.810701	0.067286
2499.022000	0.152981	0.185672	19.811020	0.067286
2502.018000	0.152981	0.185672	19.810701	0.067286
2505.018000	0.152981	0.185672	19.811020	0.067286
2508.006000	0.152981	0.185354	19.810701	0.067286
2511.025000	0.153298	0.185354	19.810701	0.067286
2514.005000	0.152981	0.185354	19.811020	0.067286
2517.025000	0.152981	0.185354	19.811020	0.067286
2520.022000	0.152981	0.185354	19.810701	0.067286
2523.005000	0.152981	0.185672	19.810701	0.067286
2526.017000	0.153298	0.185672	19.810701	0.067286
2529.006000	0.152981	0.185672	19.810701	0.067286
2532.018000	0.153298	0.185672	19.810701	0.067286
2535.026000	0.152981	0.185672	19.810701	0.067286
2538.007000	0.152981	0.185672	19.810701	0.067286
2541.018000	0.152981	0.185354	19.810701	0.067286
2544.006000	0.152981	0.185354	19.810701	0.067286
2547.025000	0.152981	0.185354	19.810385	0.067286
2550.035000	0.152981	0.185354	19.810385	0.067286
2553.105000	0.152981	0.185354	19.810385	0.067286
2556.018000	0.152981	0.185672	19.810385	0.067286
2559.013000	0.152981	0.185354	19.810385	0.067286
2562.007000	0.152981	0.185354	19.810701	0.067286
2565.022999	0.152981	0.185354	19.810701	0.067286
2568.014999	0.152981	0.185672	19.810385	0.067286
2571.061000	0.152981	0.185354	19.810385	0.067286
2574.090000	0.152981	0.185354	19.810701	0.066969
2577.019000	0.152981	0.185354	19.810701	0.067286
2580.020000	0.152981	0.185672	19.810385	0.067286
2583.008000	0.152981	0.185354	19.810385	0.067286
2586.027000	0.152981	0.185354	19.810385	0.067286
2589.024000	0.152981	0.185672	19.810385	0.067286
2592.022000	0.152981	0.185354	19.810385	0.067286
2595.020000	0.152981	0.185354	19.810385	0.066969
2598.123000	0.152981	0.185354	19.810385	0.067286
2601.009000	0.152981	0.185672	19.810385	0.067286
2604.107000	0.152981	0.185354	19.810701	0.067286
2607.020000	0.152981	0.185354	19.810385	0.067286
2610.128000	0.152981	0.185354	19.810385	0.067286
2613.008000	0.152981	0.185354	19.810385	0.067286
2616.020000	0.152981	0.185354	19.810385	0.067286
2619.094000	0.152981	0.185672	19.810701	0.067286
2622.116000	0.152981	0.185354	19.810385	0.067286
2625.016000	0.152981	0.185354	19.810385	0.067286
2628.021000	0.152981	0.185672	19.810385	0.067286
2631.008000	0.152981	0.185354	19.810701	0.067286
2634.008000	0.152981	0.185354	19.810385	0.067286
2637.008000	0.152981	0.185354	19.810385	0.067286
2640.020000	0.152981	0.185354	19.810385	0.067286
2643.083000	0.152981	0.185354	19.810385	0.067286
2646.009000	0.152981	0.185354	19.810385	0.067286
2649.010000	0.152981	0.185672	19.810385	0.066969
2652.081000	0.152981	0.185354	19.810385	0.067286
2655.018000	0.152981	0.185354	19.810701	0.067286
2658.018000	0.152981	0.185354	19.810385	0.067286
2661.035000	0.152981	0.185354	19.810385	0.067286
2664.055000	0.152981	0.185354	19.810385	0.066969
2667.022000	0.152981	0.185354	19.810385	0.067286
2670.029000	0.152981	0.185354	19.810385	0.066969
2673.022000	0.152981	0.185354	19.810385	0.067286
2676.018000	0.152981	0.185354	19.810385	0.067286
2679.022000	0.152981	0.185354	19.810385	0.067286
2682.022000	0.152981	0.185354	19.810385	0.067286
2685.105000	0.152981	0.185354	19.810385	0.067286
2688.029000	0.152981	0.185354	19.810385	0.067286
2691.018001	0.152981	0.185354	19.810385	0.066969
2694.029999	0.152981	0.185354	19.810066	0.066969
2697.088999	0.152981	0.185354	19.810385	0.067286
2700.022000	0.152981	0.185354	19.810066	0.067286
2703.039000	0.152981	0.185354	19.810385	0.067286
2706.018000	0.152981	0.185354	19.810066	0.067286
2709.022000	0.152981	0.185354	19.810066	0.066969
2712.026000	0.152981	0.185354	19.810066	0.067286
2715.010000	0.152981	0.185354	19.810385	0.067286
2718.099999	0.152981	0.185354	19.810066	0.067286
2721.022000	0.152981	0.185354	19.810066	0.067286
2724.029999	0.152981	0.185354	19.810385	0.067286
2727.018000	0.152981	0.185354	19.810385	0.067286
2730.031000	0.152981	0.185354	19.810066	0.067286
2733.124000	0.152981	0.185354	19.810385	0.067286
2736.023000	0.152981	0.185354	19.810066	0.067286
2739.060000	0.152981	0.185354	19.810385	0.066969
2742.117000	0.152981	0.185354	19.810385	0.067286
2745.012000	0.152981	0.185354	19.810385	0.067286
2748.024000	0.152981	0.185354	19.810385	0.066969
2751.012000	0.152981	0.185354	19.810385	0.066969
2754.020000	0.152981	0.185354	19.810066	0.067286
2757.099000	0.152981	0.185354	19.810066	0.067286
2760.013000	0.152981	0.185354	19.810066	0.066969
2763.020000	0.152981	0.185354	19.809750	0.067286
2766.021000	0.152981	0.185354	19.810066	0.066969
2769.014000	0.152981	0.185354	19.810066	0.066969
2772.029000	0.152981	0.185354	19.810066	0.067286
2775.022000	0.152981	0.185354	19.810066	0.066969
2778.014999	0.152981	0.185354	19.809750	0.067286
2781.028000	0.152981	0.185354	19.810066	0.067286
2784.028000	0.152981	0.185354	19.810066	0.066969
2787.016000	0.152981	0.185354	19.810066	0.067286
2790.037000	0.152981	0.185354	19.810066	0.067286
2793.113000	0.152981	0.185354	19.810066	0.067286
2796.048999	0.152981	0.185354	19.810066	0.066969
2799.050000	0.152981	0.185354	19.810066	0.066969
2802.029000	0.152981	0.185354	19.810385	0.066969
2805.017000	0.152346	0.185354	19.810066	0.067286
2808.045000	0.152981	0.185354	19.810066	0.067286
2811.037000	0.152981	0.185354	19.810066	0.066969
2814.018000	0.152981	0.185354	19.810066	0.066969
2817.033000	0.152981	0.185354	19.810066	0.067286
2820.037001	0.152981	0.185354	19.810066	0.067286
2823.029000	0.152981	0.185354	19.810066	0.067286
2826.026000	0.152981	0.185354	19.810066	0.066969
2829.033999	0.152981	0.185354	19.810066	0.066969
2832.026000	0.152981	0.185354	19.810066	0.066969
2835.034000	0.152981	0.185354	19.810066	0.066969
2838.018000	0.152346	0.185354	19.810066	0.067286
2841.102000	0.152981	0.185354	19.810066	0.066969
2844.113000	0.152981	0.185354	19.809750	0.066969
2847.026000	0.152981	0.185354	19.809750	0.066969
2850.029999	0.152346	0.185354	19.809750	0.066969
2853.038000	0.152981	0.185354	19.809750	0.066969
2856.018000	0.152981	0.185354	19.810066	0.067286
2859.031000	0.152981	0.185354	19.810066	0.066969
2862.030000	0.152981	0.185354	19.810066	0.066969
2865.018000	0.152981	0.185354	19.810066	0.066969
2868.030000	0.152981	0.185354	19.810066	0.066969
2871.030000	0.152981	0.185354	19.810066	0.066969
2874.031000	0.152981	0.185354	19.809750	0.067286
2877.020000	0.152981	0.185354	19.810066	0.066969
2880.028000	0.152981	0.185354	19.810066	0.066969
2883.065000	0.152981	0.185354	19.810066	0.066969
2886.063000	0.152981	0.185354	19.809750	0.066969
2889.114000	0.152981	0.185354	19.810066	0.066969
2892.023000	0.152981	0.185354	19.810066	0.066969
2895.034000	0.152981	0.185354	19.810066	0.066969
2898.072000	0.152981	0.185354	19.810066	0.066969
2901.034999	0.152981	0.185354	19.809114	0.066969
2904.033999	0.152981	0.185037	19.809750	0.066969
2907.029999	0.152346	0.185354	19.809750	0.066969
2910.030000	0.152981	0.185354	19.809750	0.066969
2913.030000	0.152981	0.185354	19.809750	0.066969
2916.071000	0.152981	0.185354	19.809750	0.067286
2919.022000	0.152346	0.185354	19.809750	0.066969
2922.038000	0.152346	0.185354	19.809750	0.066969
2925.023000	0.152981	0.185354	19.809750	0.066969
2928.041999	0.152981	0.185354	19.809750	0.066969
2931.029999	0.152346	0.185354	19.809750	0.066969
2934.022000	0.152346	0.185354	19.809750	0.066969
2937.022000	0.152346	0.185354	19.809750	0.066969
2940.038000	0.152346	0.185037	19.809750	0.066969
2943.030000	0.152981	0.185354	19.809750	0.066969
2946.043000	0.152981	0.185354	19.809750	0.067286
2949.094000	0.152346	0.185354	19.809750	0.066969
2952.031000	0.152346	0.185354	19.809750	0.066969
2955.022999	0.152346	0.185037	19.809750	0.066969
2958.131000	0.152981	0.185354	19.809750	0.066969
2961.043000	0.152346	0.185354	19.809750	0.066969
2964.035000	0.152346	0.185354	19.809750	0.066969
2967.096000	0.152981	0.185354	19.809750	0.066969
2970.023000	0.152346	0.185354	19.809750	0.066969
2973.055000	0.152346	0.185354	19.809750	0.066969
2976.036000	0.152346	0.185354	19.809750	0.066969
2979.031000	0.152346	0.185354	19.809750	0.066969
2982.036000	0.152346	0.185354	19.809750	0.066969
2985.024000	0.152346	0.185354	19.809750	0.066969
2988.143000	0.152346	0.185354	19.809750	0.066969
2991.023000	0.152346	0.185354	19.809750	0.066969
2994.039000	0.152346	0.185354	19.809750	0.066969
2997.031000	0.152346	0.185354	19.809114	0.066969
3000.043000	0.152346	0.185354	19.809750	0.066969
3003.043000	0.152346	0.185354	19.809750	0.066969
3006.031000	0.152346	0.185037	19.809114	0.066969
3009.032000	0.152346	0.185037	19.809114	0.066969
3012.036000	0.152346	0.185037	19.809114	0.066969
3015.044000	0.152346	0.185354	19.809114	0.066969
3018.044000	0.152346	0.185037	19.809114	0.066969
3021.124000	0.152346	0.185354	19.809114	0.066969
3024.025000	0.152346	0.185354	19.809750	0.066969
3027.038000	0.152346	0.185354	19.809114	0.066969
3030.045000	0.152346	0.185037	19.809750	0.066969
3033.054000	0.152346	0.185037	19.809750	0.066969
3036.124000	0.152346	0.185354	19.809750	0.066969
3039.038000	0.152346	0.185354	19.809114	0.066969
3042.038000	0.152346	0.185354	19.809750	0.066969
3045.046000	0.152346	0.185354	19.809750	0.066969
3048.026000	0.152346	0.185354	19.809750	0.066969
3051.104000	0.152346	0.185037	19.809750	0.066969
3054.046000	0.152346	0.185354	19.809750	0.066969
3057.026000	0.152346	0.185037	19.809114	0.066969
3060.047000	0.152346	0.185037	19.809750	0.066969
3063.026999	0.152346	0.185037	19.809750	0.066969
3066.059000	0.152346	0.185354	19.809114	0.066969
3069.038000	0.152346	0.185037	19.809114	0.066969
3072.038000	0.152346	0.185037	19.809114	0.066969
3075.043000	0.152346	0.185037	19.809114	0.066969
3078.048000	0.152346	0.185037	19.808798	0.066969
3081.106000	0.152346	0.185037	19.809114	0.066969
3084.055999	0.152346	0.185037	19.809114	0.066969
3087.028000	0.152346	0.185354	19.808798	0.066969
3090.039000	0.152346	0.185354	19.809114	0.066969
3093.036000	0.152029	0.185354	19.809114	0.066969
3096.040000	0.152346	0.185354	19.809114	0.066969
3099.099000	0.152346	0.185037	19.809114	0.066969
3102.036000	0.152346	0.185037	19.808798	0.066969
3105.029000	0.152346	0.185354	19.808798	0.066969
3108.029000	0.152346	0.185037	19.809114	0.066969
3111.040000	0.152346	0.185354	19.809114	0.066969
3114.040000	0.152346	0.185037	19.809114	0.066969
3117.048000	0.152346	0.185354	19.808798	0.066969
3120.040000	0.152346	0.185354	19.809114	0.066969
3123.041000	0.152346	0.185037	19.809114	0.066969
3126.040000	0.152346	0.185037	19.809114	0.066969
3129.048000	0.152346	0.185354	19.809114	0.066969
3132.041000	0.152346	0.185037	19.808798	0.066969
3135.041999	0.152346	0.185037	19.809114	0.066969
3138.050000	0.152346	0.185037	19.809114	0.066969
3141.047000	0.152346	0.185037	19.809114	0.066969
3144.051000	0.152346	0.185354	19.809114	0.066969
3147.032000	0.152346	0.185354	19.808798	0.066969
3150.037000	0.152346	0.185037	19.808798	0.066969
3153.053000	0.152346	0.185037	19.808798	0.066969
3156.043000	0.152346	0.185037	19.809114	0.066969
3159.142000	0.152029	0.185037	19.809114	0.066969
3162.047000	0.152346	0.185354	19.809114	0.066969
3165.043000	0.152346	0.185037	19.809114	0.066969
3168.099999	0.152346	0.185354	19.808798	0.066651
3171.036000	0.152346	0.185037	19.808798	0.066969
3174.047000	0.152346	0.185037	19.808798	0.066969
3177.036000	0.152346	0.185037	19.809114	0.066969
3180.043000	0.152346	0.185037	19.808798	0.066969
3183.055000	0.152346	0.185037	19.808798	0.066969
3186.044000	0.152346	0.185354	19.808798	0.066969
3189.052999	0.152346	0.185037	19.808798	0.066969
3192.114999	0.152346	0.185037	19.808798	0.066969
3195.045000	0.152346	0.185037	19.808798	0.066969
3198.045000	0.152346	0.185037	19.808798	0.066969
3201.038000	0.152346	0.185037	19.808798	0.066969
3204.157000	0.152346	0.185037	19.808798	0.066969
3207.037000	0.152346	0.185037	19.809114	0.066969
3210.067000	0.152029	0.185037	19.808798	0.066969
3213.085999	0.152346	0.185037	19.808798	0.066969
3216.140999	0.152346	0.185037	19.808798	0.066969
3219.141000	0.152346	0.185354	19.808798	0.066969
3222.038000	0.152346	0.185037	19.808798	0.066969
3225.058000	0.152346	0.185037	19.808798	0.066969
3228.047000	0.152029	0.185037	19.808479	0.066651
3231.039000	0.152346	0.185354	19.808798	0.066969
3234.059000	0.152029	0.185354	19.808798	0.066969
3237.116000	0.152346	0.185037	19.808798	0.066969
3240.121000	0.152029	0.185037	19.808479	0.066969
3243.125000	0.152029	0.185354	19.808479	0.066969
3246.052000	0.152029	0.185037	19.808798	0.066969
3249.059999	0.152346	0.185037	19.808479	0.066969
3252.053000	0.152029	0.185037	19.808479	0.066969
3255.102000	0.152029	0.185037	19.808798	0.066969
3258.053000	0.152029	0.185037	19.808479	0.066969
3261.042000	0.152029	0.185037	19.808479	0.066969
3264.048999	0.152029	0.185037	19.808479	0.066969
3267.061000	0.152029	0.185037	19.808479	0.066969
3270.128000	0.152029	0.185037	19.808479	0.066969
3273.058000	0.152029	0.185037	19.808479	0.066969
3276.040999	0.152029	0.185037	19.808479	0.066969
3279.041000	0.152346	0.185037	19.808479	0.066969
3282.053000	0.152029	0.185037	19.808479	0.066969
3285.061000	0.152346	0.185037	19.808479	0.066969
3288.042000	0.152029	0.185037	19.808479	0.066969
3291.132000	0.152346	0.185037	19.808479	0.066651
3294.042000	0.152346	0.185037	19.808479	0.066969
3297.058000	0.152346	0.185037	19.808479	0.066969
3300.058000	0.152029	0.185037	19.808479	0.066969
3303.083000	0.152346	0.185037	19.808798	0.066969
3306.062000	0.152029	0.185037	19.808479	0.066651
3309.043000	0.152029	0.185037	19.808163	0.066651
3312.054000	0.152029	0.185037	19.808479	0.066651
3315.055000	0.152029	0.185037	19.808479	0.066651
3318.050000	0.152346	0.185037	19.808479	0.066969
3321.051000	0.152029	0.185037	19.808479	0.066969
3324.059000	0.152029	0.185037	19.808479	0.066651
3327.079000	0.152029	0.185037	19.808163	0.066969
3330.042000	0.152029	0.185037	19.808479	0.066651
3333.063000	0.152029	0.185037	19.808479	0.066651
3336.043000	0.152346	0.185037	19.808479	0.066969
3339.055000	0.152029	0.185037	19.808163	0.066651
3342.053999	0.152029	0.185037	19.808479	0.066651
3345.055000	0.152029	0.185037	19.808479	0.066969
3348.050000	0.152029	0.185037	19.808163	0.066651
3351.117000	0.152029	0.185037	19.808479	0.066969
3354.149000	0.152346	0.185037	19.808479	0.066969
3357.129000	0.152029	0.185037	19.808479	0.066969
3360.050000	0.152029	0.185037	19.808479	0.066969
3363.050000	0.152029	0.185037	19.808479	0.066969
3366.062000	0.152029	0.185037	19.808479	0.066969
3369.041999	0.152029	0.185037	19.808163	0.066969
3372.043000	0.152029	0.185037	19.808479	0.066651
3375.042000	0.152029	0.185037	19.808479	0.066651
3378.043000	0.152029	0.185037	19.808163	0.066969
3381.042000	0.152029	0.185037	19.808479	0.066651
3384.050000	0.152029	0.185037	19.808479	0.066969
3387.051000	0.152029	0.185037	19.808163	0.066651
3390.050000	0.152029	0.185037	19.808479	0.066651
3393.041999	0.152029	0.185037	19.808479	0.066651
3396.054000	0.152029	0.185037	19.808479	0.066651
3399.062000	0.152029	0.185037	19.808163	0.066651
3402.054000	0.152029	0.185037	19.808163	0.066651
3405.044000	0.152029	0.185037	19.808479	0.066651
3408.052000	0.152029	0.185037	19.808479	0.066651
3411.056000	0.152029	0.185037	19.808163	0.066651
3414.056000	0.152029	0.185037	19.808163	0.066651
3417.052000	0.152029	0.184402	19.808479	0.066651
3420.045000	0.152029	0.185037	19.808479	0.066651
3423.044000	0.152029	0.185037	19.808479	0.066969
3426.057000	0.152029	0.184402	19.808479	0.066651
3429.052999	0.152029	0.185037	19.808163	0.066969
3432.045000	0.152029	0.185037	19.808163	0.066969
3435.054000	0.152029	0.185037	19.808479	0.066651
3438.058000	0.152029	0.185037	19.808479	0.066651
3441.065000	0.152029	0.185037	19.808479	0.066651
3444.144000	0.152029	0.185037	19.808163	0.066969
3447.054000	0.152029	0.185037	19.808163	0.066651
3450.054000	0.152029	0.185037	19.808479	0.066651
3453.059000	0.152029	0.185037	19.808479	0.066651
3456.059000	0.152029	0.185037	19.808163	0.066969
3459.058000	0.152029	0.184402	19.808479	0.066969
3462.066000	0.152029	0.185037	19.808163	0.066651
3465.059000	0.152029	0.185037	19.808479	0.066651
3468.054000	0.152029	0.185037	19.808163	0.066969
3471.059999	0.152029	0.185037	19.808163	0.066969
3474.156000	0.152029	0.185037	19.808163	0.066651
3477.055999	0.152029	0.185037	19.807846	0.066651
3480.064000	0.152029	0.185037	19.808163	0.066651
3483.059999	0.152029	0.185037	19.808163	0.066969
3486.061000	0.152029	0.185037	19.808163	0.066969
3489.107000	0.152029	0.185037	19.808163	0.066651
3492.064000	0.152029	0.185037	19.808163	0.066651
3495.079000	0.152029	0.185037	19.807846	0.066651
3498.050000	0.152029	0.185037	19.807846	0.066651
3501.058000	0.152029	0.185037	19.807846	0.066651
3504.058000	0.152029	0.185037	19.808163	0.066651
3507.167000	0.152029	0.185037	19.807846	0.066651
3510.050000	0.152029	0.185037	19.807846	0.066651
3513.067000	0.152029	0.184402	19.807846	0.066651
3516.063000	0.152029	0.185037	19.807846	0.066651
3519.059000	0.152029	0.185037	19.807846	0.066651
3522.051001	0.152029	0.185037	19.807846	0.066651
3525.062999	0.152029	0.185037	19.807846	0.066651
3528.117000	0.152029	0.185037	19.807846	0.066651
3531.066999	0.152029	0.185037	19.807846	0.066651
3534.063000	0.152029	0.185037	19.807846	0.066651
3537.064000	0.152029	0.185037	19.807846	0.066651
3540.171000	0.152029	0.185037	19.807846	0.066651
3543.052000	0.152029	0.185037	19.807846	0.066651
3546.063000	0.152029	0.185037	19.807846	0.066651
3549.072000	0.152029	0.185037	19.807846	0.066651
3552.071000	0.152029	0.185037	19.808163	0.066969
3555.064000	0.152029	0.184402	19.807846	0.066651
3558.059000	0.151711	0.185037	19.807846	0.066651
3561.071000	0.152029	0.185037	19.807846	0.066651
3564.053000	0.152029	0.185037	19.807846	0.066651
3567.160000	0.152029	0.185037	19.807211	0.066651
3570.131000	0.152029	0.184402	19.807846	0.066651
3573.054000	0.152029	0.185037	19.807846	0.066651
3576.131000	0.152029	0.185037	19.807846	0.066651
3579.054000	0.152029	0.185037	19.807846	0.066969
3582.054000	0.152029	0.185037	19.807846	0.066651
3585.145000	0.152029	0.185037	19.807846	0.066651
3588.075000	0.152029	0.185037	19.807846	0.066969
3591.072000	0.152029	0.185037	19.807846	0.066651
3594.134000	0.152029	0.185037	19.807846	0.066651
3597.056000	0.152029	0.185037	19.807846	0.066651
3600.105000	0.152029	0.185037	19.807211	0.066651
3603.064000	0.152029	0.185037	19.807846	0.066651
3606.064000	0.152029	0.185037	19.807846	0.066651
3609.069000	0.152029	0.184402	19.807211	0.066651
3612.109000	0.152029	0.184402	19.807846	0.066651
3615.148000	0.152029	0.185037	19.807846	0.066651
3618.094000	0.152029	0.185037	19.807846	0.066651
3621.059000	0.152029	0.184402	19.807846	0.066651
3624.136000	0.152029	0.184402	19.807846	0.066651
3627.077999	0.152029	0.185037	19.807846	0.066651
3630.107000	0.152029	0.185037	19.807846	0.066651
3633.104000	0.152029	0.185037	19.807211	0.066651
3636.058000	0.152029	0.184402	19.807846	0.066651
3639.071000	0.152029	0.184402	19.807846	0.066651
3642.066000	0.152029	0.185037	19.807846	0.066651
3645.071000	0.152029	0.185037	19.807846	0.066651
3648.070000	0.152029	0.184402	19.807846	0.066651
3651.066000	0.152029	0.185037	19.807846	0.066651
3654.059000	0.152029	0.185037	19.807846	0.066651
3657.074999	0.151711	0.184402	19.808163	0.066651
3660.066000	0.152029	0.184402	19.807846	0.066651
3663.079000	0.152029	0.185037	19.808163	0.066651
3666.079000	0.152029	0.185037	19.807846	0.066651
3669.134000	0.152029	0.185037	19.807846	0.066651
3672.072000	0.152029	0.184402	19.807846	0.066651
3675.077000	0.152029	0.184402	19.807846	0.066651
3678.079000	0.152029	0.185037	19.807846	0.066651
3681.067999	0.152029	0.185037	19.808163	0.066651
3684.117000	0.152029	0.185037	19.807846	0.066651
3687.068000	0.152029	0.184402	19.807846	0.066651
3690.059999	0.152029	0.184402	19.807846	0.066651
3693.061000	0.152029	0.185037	19.807846	0.066651
3696.089000	0.152029	0.185037	19.807846	0.066651
3699.073000	0.152029	0.184402	19.807846	0.066651
3702.078000	0.152029	0.184402	19.807846	0.066651
3705.077999	0.151711	0.185037	19.807846	0.066651
3708.073000	0.152029	0.184402	19.807211	0.066651
3711.073000	0.152029	0.184402	19.807846	0.066651
3714.069000	0.152029	0.185037	19.807846	0.066651
3717.061000	0.152029	0.184402	19.807211	0.066651
3720.069000	0.152029	0.185037	19.807211	0.066651
3723.061000	0.152029	0.184402	19.807846	0.066651
3726.082000	0.151711	0.184402	19.807211	0.066651
3729.074000	0.151711	0.184402	19.807211	0.066651
3732.073000	0.151711	0.184402	19.807846	0.066651
3735.069000	0.152029	0.184402	19.807846	0.066651
3738.073000	0.152029	0.185037	19.807846	0.066651
3741.098000	0.152029	0.184402	19.807211	0.066651
3744.077000	0.151711	0.184402	19.807846	0.066651
3747.123000	0.152029	0.184402	19.807211	0.066651
3750.171000	0.152029	0.185037	19.807211	0.066651
3753.062000	0.151711	0.184402	19.807211	0.066651
3756.062000	0.151711	0.184402	19.807211	0.066651
3759.098000	0.151711	0.184402	19.807211	0.066651
3762.081999	0.152029	0.184402	19.807211	0.066651
3765.072000	0.152029	0.185037	19.807211	0.066651
3768.107000	0.151711	0.184402	19.807846	0.066651
3771.075000	0.152029	0.184402	19.807846	0.066651
3774.071000	0.152029	0.184402	19.807211	0.066651
3777.071000	0.152029	0.184402	19.807211	0.066651
3780.153000	0.151711	0.184402	19.807211	0.066651
3783.084000	0.151711	0.185037	19.807211	0.066651
3786.073000	0.151711	0.185037	19.807211	0.066651
3789.085999	0.152029	0.184402	19.807211	0.066651
3792.066000	0.151711	0.184402	19.807211	0.066651
3795.073000	0.152029	0.184402	19.807211	0.066651
3798.078000	0.151711	0.184402	19.806892	0.066651
3801.082000	0.151711	0.184402	19.807211	0.066651
3804.074000	0.151711	0.185037	19.807211	0.066651
3807.086000	0.152029	0.184402	19.807211	0.066651
3810.084999	0.151711	0.184402	19.807211	0.066651
3813.081999	0.152029	0.184402	19.807211	0.066651
3816.079000	0.152029	0.184402	19.806892	0.066651
3819.147000	0.152029	0.184402	19.807211	0.066651
3822.105000	0.151711	0.184402	19.807211	0.066651
3825.168000	0.152029	0.184402	19.807211	0.066651
3828.086000	0.152029	0.184402	19.807211	0.066651
3831.140000	0.152029	0.184402	19.807211	0.066651
3834.148000	0.151711	0.184402	19.806892	0.066651
3837.085999	0.151711	0.185037	19.807211	0.066651
3840.078000	0.152029	0.184402	19.807211	0.066651
3843.162000	0.151711	0.184402	19.807211	0.066651
3846.082000	0.151711	0.184402	19.807211	0.066651
3849.147000	0.151711	0.184402	19.807211	0.066651
3852.088000	0.152029	0.185037	19.807211	0.066651
3855.083000	0.151711	0.184402	19.807211	0.066651
3858.079000	0.151711	0.185037	19.807211	0.066651
3861.088000	0.151711	0.184402	19.807846	0.066334
3864.137000	0.151711	0.184402	19.807211	0.066651
3867.091000	0.152029	0.184402	19.807211	0.066651
3870.158000	0.152029	0.184402	19.807211	0.066651
3873.071000	0.151711	0.184402	19.807211	0.066651
3876.108000	0.151711	0.184402	19.807211	0.066651
3879.079000	0.152029	0.184402	19.807211	0.066651
3882.125000	0.152029	0.184402	19.807211	0.066651
3885.091000	0.151711	0.184402	19.806892	0.066651
3888.079000	0.151711	0.184402	19.807211	0.066651
3891.083000	0.151711	0.184402	19.806892	0.066651
3894.083000	0.152029	0.184402	19.806892	0.066651
3897.091000	0.152029	0.184402	19.806892	0.066651
3900.083000	0.151711	0.184402	19.806892	0.066651
3903.088000	0.151711	0.184402	19.806892	0.066651
3906.078000	0.151711	0.184402	19.806892	0.066651
3909.088000	0.151711	0.184402	19.807211	0.066651
3912.083000	0.151711	0.184402	19.806892	0.066651
3915.090000	0.151711	0.184402	19.806892	0.066651
3918.071000	0.152029	0.184402	19.807211	0.066651
3921.092000	0.151711	0.184402	19.807211	0.066651
3924.071000	0.151711	0.185037	19.807211	0.066651
3927.071000	0.151711	0.184402	19.807211	0.066651
3930.124000	0.151711	0.184402	19.807211	0.066651
3933.072000	0.151711	0.184402	19.807211	0.066651
3936.080000	0.152029	0.184402	19.807211	0.066651
3939.092000	0.151711	0.184402	19.806892	0.066651
3942.085000	0.151711	0.184402	19.806892	0.066334
3945.193000	0.151711	0.184402	19.806892	0.066651
3948.081000	0.151711	0.184402	19.806892	0.066651
3951.084000	0.151711	0.184402	19.806892	0.066651
3954.092000	0.151711	0.184402	19.806892	0.066651
3957.080000	0.152029	0.184402	19.806892	0.066651
3960.077000	0.151711	0.184402	19.806892	0.066334
3963.146000	0.152029	0.184402	19.806892	0.066334
3966.152999	0.151711	0.185037	19.806892	0.066651
3969.073000	0.151711	0.184402	19.806892	0.066651
3972.080000	0.151711	0.184402	19.806892	0.066651
3975.143000	0.151711	0.184402	19.806892	0.066334
3978.109000	0.151711	0.184402	19.806892	0.066334
3981.080000	0.151711	0.184402	19.806892	0.066334
3984.084000	0.151711	0.184402	19.806892	0.066651
3987.072000	0.151711	0.184402	19.806892	0.066651
3990.084001	0.152029	0.184402	19.806892	0.066334
3993.080000	0.151711	0.184402	19.806892	0.066651
3996.084000	0.151711	0.184402	19.806892	0.066651
3999.191999	0.151711	0.184402	19.806892	0.066651
4002.108000	0.151711	0.184402	19.806259	0.066651
4005.073000	0.151711	0.184402	19.806892	0.066651
4008.084000	0.151711	0.184402	19.806892	0.066651
4011.154000	0.151711	0.184402	19.806259	0.066651
4014.098000	0.151711	0.184402	19.806892	0.066651
4017.084999	0.151711	0.184402	19.806892	0.066651
4020.085000	0.151711	0.184402	19.806892	0.066334
4023.073000	0.151711	0.184402	19.806892	0.066334
4026.073999	0.151711	0.184402	19.806259	0.066651
4029.085000	0.152029	0.184402	19.806259	0.066651
4032.081000	0.151711	0.184402	19.806892	0.066334
4035.073000	0.151711	0.184402	19.806259	0.066651
4038.085000	0.151711	0.184402	19.805941	0.066651
4041.082000	0.151711	0.184402	19.806259	0.066651
4044.095000	0.151711	0.184402	19.806259	0.066651
4047.083000	0.151711	0.184402	19.806259	0.066334
4050.147999	0.151711	0.184402	19.806259	0.066651
4053.077000	0.151711	0.184402	19.806259	0.066651
4056.193000	0.151711	0.184402	19.806259	0.066651
4059.085000	0.151711	0.184402	19.806259	0.066651
4062.094000	0.151711	0.184402	19.805941	0.066651
4065.091000	0.151711	0.184402	19.806259	0.066334
4068.151999	0.151711	0.184402	19.805941	0.066334
4071.078000	0.151711	0.184402	19.806259	0.066334
4074.095000	0.151711	0.184402	19.806259	0.066334
4077.095000	0.151711	0.184402	19.806259	0.066334
4080.086000	0.151711	0.184402	19.806259	0.066651
4083.097000	0.151711	0.184402	19.806259	0.066334
4086.152000	0.151711	0.184402	19.806259	0.066651
4089.090000	0.151711	0.184402	19.805941	0.066334
4092.110000	0.151711	0.184402	19.806259	0.066651
4095.085999	0.151711	0.184402	19.806259	0.066334
4098.179000	0.151711	0.184402	19.806259	0.066651
4101.142000	0.151711	0.184402	19.806259	0.066651
4104.079000	0.151711	0.184402	19.806259	0.066651
4107.079000	0.151711	0.184402	19.806259	0.066334
4110.168000	0.151711	0.184402	19.805941	0.066334
4113.079000	0.151711	0.184402	19.805941	0.066334
4116.118001	0.151711	0.184402	19.805941	0.066334
4119.087000	0.151394	0.184085	19.805941	0.066651
4122.099000	0.151711	0.184402	19.806259	0.066334
4125.177000	0.151711	0.184402	19.806259	0.066651
4128.094000	0.151711	0.184402	19.805941	0.066651
4131.079000	0.151711	0.184402	19.805941	0.066334
4134.098000	0.151711	0.184402	19.805305	0.066334
4137.098000	0.151711	0.184402	19.805941	0.066334
4140.183000	0.151711	0.184402	19.806259	0.066651
4143.153000	0.151711	0.184402	19.806259	0.066334
4146.090000	0.151711	0.184402	19.806259	0.066651
4149.090000	0.151711	0.184402	19.805941	0.066334
4152.114999	0.151711	0.184402	19.805941	0.066334
4155.085999	0.151711	0.184402	19.805941	0.066651
4158.095000	0.151711	0.184402	19.805941	0.066334
4161.099000	0.151711	0.184402	19.805941	0.066651
4164.108000	0.151711	0.184085	19.805941	0.066334
4167.169000	0.151711	0.184402	19.805941	0.066651
4170.086000	0.151394	0.184402	19.805941	0.066334
4173.155000	0.151711	0.184402	19.805941	0.066334
4176.085999	0.151711	0.184402	19.805941	0.066334
4179.095000	0.151711	0.184402	19.805941	0.066334
4182.091000	0.151711	0.184402	19.805305	0.066651
4185.160000	0.151711	0.184402	19.805941	0.066334
4188.170000	0.151711	0.184402	19.805941	0.066334
4191.086000	0.151711	0.184402	19.805941	0.066334
4194.120000	0.151711	0.184402	19.805305	0.066651
4197.095000	0.151711	0.184402	19.805941	0.066334
4200.095000	0.151711	0.184402	19.805305	0.066334
4203.198000	0.151711	0.184402	19.805305	0.066334
4206.121999	0.151711	0.184402	19.805941	0.066334
4209.094000	0.151711	0.184402	19.805941	0.066334
4212.090000	0.151711	0.184085	19.805941	0.066651
4215.095000	0.151711	0.184402	19.805305	0.066334
4218.108000	0.151711	0.184402	19.805941	0.066334
4221.098000	0.151711	0.184402	19.805941	0.066334
4224.096000	0.151711	0.184402	19.805941	0.066651
4227.191999	0.151711	0.184402	19.805941	0.066334
4230.080000	0.151711	0.184402	19.805305	0.066334
4233.200000	0.151394	0.184085	19.805305	0.066334
4236.096000	0.151711	0.184402	19.805305	0.066334
4239.081000	0.151711	0.184402	19.805305	0.066334
4242.179000	0.151711	0.184085	19.805305	0.066334
4245.096000	0.151711	0.184402	19.805305	0.066334
4248.096001	0.151711	0.184402	19.805305	0.066334
4251.092000	0.151711	0.184085	19.805305	0.066334
4254.191999	0.151711	0.184402	19.805941	0.066334
4257.080000	0.151711	0.184402	19.805305	0.066334
4260.089000	0.151711	0.184402	19.805305	0.066334
4263.090000	0.151711	0.184402	19.805305	0.066334
4266.094000	0.151711	0.184402	19.805941	0.066334
4269.095000	0.151711	0.184402	19.805941	0.066334
4272.095000	0.151711	0.184402	19.805941	0.066334
4275.168000	0.151711	0.184402	19.804989	0.066334
4278.090000	0.151711	0.184085	19.805305	0.066334
4281.102000	0.151711	0.184085	19.805305	0.066334
4284.083000	0.151711	0.184402	19.805305	0.066334
4287.102000	0.151711	0.184402	19.804989	0.066334
4290.181000	0.151711	0.184402	19.805305	0.066334
4293.098000	0.151394	0.184085	19.805305	0.066334
4296.173000	0.151711	0.184402	19.805305	0.066334
4299.189000	0.151394	0.184402	19.805305	0.066334
4302.173000	0.151711	0.184085	19.805305	0.066334
4305.094000	0.151711	0.184402	19.805941	0.066334
4308.082000	0.151711	0.184085	19.805305	0.066334
4311.155000	0.151711	0.184402	19.805305	0.066334
4314.164000	0.151711	0.184085	19.805305	0.066334
4317.090000	0.151394	0.184402	19.805305	0.066334
4320.090000	0.151711	0.184402	19.805305	0.066334
4323.090000	0.151711	0.184402	19.805305	0.066334
4326.090000	0.151711	0.184402	19.805941	0.066334
4329.182000	0.151711	0.184402	19.805305	0.066334
4332.196000	0.151711	0.184402	19.805305	0.066334
4335.091000	0.151711	0.184402	19.805305	0.066334
4338.161000	0.151394	0.184085	19.805305	0.066334
4341.103000	0.151711	0.184402	19.805305	0.066334
4344.104000	0.151711	0.184085	19.805305	0.066334
4347.189000	0.151711	0.184402	19.805305	0.066334
4350.105000	0.151711	0.184402	19.804989	0.066334
4353.102000	0.151711	0.184402	19.805305	0.066334
4356.085000	0.151711	0.184402	19.805305	0.066334
4359.085999	0.151711	0.184402	19.804989	0.066334
4362.106000	0.151711	0.184402	19.804989	0.066334
4365.099000	0.151711	0.184402	19.804989	0.066334
4368.103000	0.151711	0.184402	19.805305	0.066651
4371.086000	0.151394	0.184402	19.805305	0.066334
4374.207000	0.151711	0.184402	19.805305	0.066334
4377.095000	0.151394	0.184402	19.805305	0.066334
4380.107000	0.151711	0.184402	19.805305	0.066334
4383.088000	0.151394	0.184085	19.805305	0.066334
4386.206999	0.151711	0.184402	19.805305	0.066334
4389.099000	0.151394	0.184402	19.804989	0.066334
4392.088000	0.151394	0.184085	19.805305	0.066334
4395.087000	0.151394	0.184402	19.805305	0.066334
4398.095000	0.151711	0.184085	19.805305	0.066334
4401.187000	0.151394	0.184402	19.805305	0.066334
4404.104000	0.151711	0.184085	19.805305	0.066334
4407.158000	0.151394	0.184085	19.804989	0.066334
4410.191999	0.151711	0.184402	19.804989	0.066334
4413.096000	0.151394	0.184402	19.805305	0.066334
4416.088000	0.151711	0.184402	19.805305	0.066334
4419.089000	0.151711	0.184085	19.804989	0.066334
4422.101000	0.151394	0.184402	19.805305	0.066334
4425.096000	0.151711	0.184085	19.805305	0.066334
4428.100000	0.151394	0.184085	19.805305	0.066334
4431.196000	0.151394	0.184085	19.805305	0.066334
4434.208000	0.151394	0.184402	19.804989	0.066334
4437.096000	0.151394	0.184085	19.805305	0.066334
4440.122000	0.151394	0.184085	19.804989	0.066334
4443.105000	0.151394	0.184085	19.805305	0.066334
4446.100000	0.151711	0.184085	19.805305	0.066334
4449.105000	0.151394	0.184085	19.804989	0.066334
4452.105000	0.151394	0.184402	19.804989	0.066334
4455.096001	0.151394	0.184085	19.804989	0.066334
4458.088999	0.151711	0.184402	19.804989	0.066334
4461.159999	0.151394	0.184085	19.804989	0.066334
4464.099999	0.151711	0.184085	19.805305	0.066334
4467.101000	0.151394	0.184085	19.804989	0.066334
4470.099999	0.151711	0.184085	19.805305	0.066334
4473.101000	0.151394	0.184085	19.805305	0.066334
4476.100000	0.151394	0.184085	19.805305	0.066334
4479.088000	0.151394	0.184085	19.805305	0.066334
4482.101000	0.151394	0.184085	19.804989	0.066334
4485.202999	0.151394	0.184402	19.805305	0.066334
4488.099999	0.151394	0.184085	19.804989	0.066334
4491.088999	0.151394	0.184402	19.804989	0.065699
4494.186000	0.151711	0.184085	19.805305	0.066334
4497.203000	0.151394	0.184085	19.805305	0.066334
4500.101000	0.151394	0.184085	19.804989	0.066334
4503.204000	0.151394	0.184085	19.804989	0.066334
4506.100000	0.151394	0.184085	19.804989	0.066334
4509.097000	0.151394	0.184085	19.805305	0.066334
4512.152999	0.151394	0.184085	19.804989	0.066334
4515.191000	0.151394	0.184402	19.804989	0.066334
4518.107000	0.151394	0.184085	19.804989	0.066334
4521.199000	0.151394	0.184085	19.804989	0.066334
4524.208000	0.151394	0.184085	19.804989	0.066334
4527.089000	0.151394	0.184085	19.804989	0.066334
4530.096000	0.151394	0.184085	19.804989	0.066334
4533.104000	0.151394	0.184402	19.805305	0.066334
4536.088000	0.151711	0.184402	19.805305	0.066334
4539.120000	0.151394	0.184085	19.804989	0.066334
4542.195000	0.151394	0.184085	19.804989	0.066334
4545.099999	0.151394	0.184085	19.805305	0.066334
4548.099999	0.151394	0.184085	19.804989	0.066334
4551.109000	0.151394	0.184085	19.805305	0.066334
4554.102000	0.151394	0.184085	19.804989	0.066334
4557.101000	0.151394	0.184402	19.804989	0.066334
4560.090000	0.151394	0.184085	19.805305	0.066334
4563.117000	0.151394	0.184085	19.804989	0.066334
4566.107999	0.151394	0.184085	19.805305	0.066334
4569.089000	0.151394	0.184402	19.805305	0.066334
4572.101000	0.151394	0.184085	19.804989	0.066334
4575.089000	0.151394	0.184402	19.804989	0.066334
4578.117000	0.151394	0.184085	19.804989	0.066334
4581.176000	0.151394	0.184085	19.804989	0.066334
4584.109000	0.151394	0.184085	19.804989	0.066334
4587.097000	0.151394	0.184085	19.804989	0.066334
4590.100999	0.151394	0.184085	19.804672	0.066334
4593.101000	0.151394	0.184085	19.804989	0.066334
4596.158999	0.151394	0.184402	19.804989	0.065699
4599.209000	0.151394	0.184085	19.804989	0.066334
4602.196000	0.151394	0.184085	19.804672	0.066334
4605.201000	0.151394	0.184085	19.804989	0.066334
4608.101000	0.151394	0.184085	19.804989	0.066334
4611.090000	0.151394	0.184085	19.804672	0.066334
4614.097000	0.151394	0.184085	19.804989	0.066334
4617.107000	0.151711	0.184085	19.804672	0.066334
4620.206000	0.151394	0.184085	19.804672	0.066334
4623.173000	0.151394	0.184085	19.804672	0.066334
4626.102000	0.151394	0.184085	19.804672	0.066334
4629.102000	0.151394	0.184085	19.804989	0.066334
4632.115000	0.151394	0.184085	19.804672	0.066334
4635.106000	0.151394	0.184085	19.804672	0.066334
4638.102000	0.151394	0.184085	19.804989	0.066334
4641.110000	0.151394	0.184085	19.804672	0.066334
4644.111000	0.151394	0.184085	19.804672	0.066334
4647.189000	0.151394	0.184402	19.804672	0.066334
4650.195000	0.151394	0.184085	19.804672	0.066334
4653.102000	0.151394	0.184085	19.804672	0.066334
4656.102000	0.151394	0.184085	19.804672	0.066334
4659.152000	0.151394	0.184085	19.804672	0.066334
4662.172000	0.151394	0.184085	19.804672	0.065699
4665.098000	0.151394	0.184085	19.804672	0.066334
4668.106000	0.151394	0.184085	19.804989	0.066334
4671.147999	0.151394	0.184085	19.804989	0.065699
4674.114000	0.151394	0.184085	19.804989	0.066334
4677.151999	0.151394	0.184085	19.804989	0.066334
4680.102000	0.151394	0.184085	19.804672	0.065699
4683.091000	0.151394	0.184085	19.804989	0.066334
4686.097000	0.151394	0.184085	19.804672	0.066334
4689.102000	0.151394	0.184085	19.804672	0.066334
4692.204999	0.151394	0.184085	19.804672	0.066334
4695.114000	0.151394	0.184085	19.804672	0.066334
4698.110000	0.151394	0.184085	19.804672	0.066334
4701.210000	0.151394	0.184085	19.804672	0.066334
4704.112000	0.151394	0.184085	19.804672	0.066334
4707.115000	0.151394	0.184085	19.804354	0.065699
4710.178000	0.151394	0.184085	19.804672	0.066334
4713.092000	0.151394	0.184085	19.804672	0.066334
4716.092000	0.151394	0.184085	19.804354	0.066334
4719.099999	0.151394	0.184085	19.804354	0.066334
4722.092999	0.151394	0.184085	19.804672	0.066334
4725.092999	0.151394	0.184085	19.804672	0.066334
4728.166000	0.151394	0.184085	19.804672	0.066334
4731.093000	0.151394	0.184085	19.804354	0.066334
4734.111000	0.151394	0.184085	19.804354	0.066334
4737.106000	0.151394	0.184085	19.804354	0.066334
4740.111000	0.151394	0.184085	19.804354	0.066334
4743.102000	0.151394	0.184085	19.804354	0.065699
4746.111000	0.151394	0.184085	19.804354	0.066334
4749.216000	0.151394	0.184085	19.804354	0.066334
4752.132999	0.151394	0.184085	19.804354	0.066334
4755.104000	0.151394	0.184085	19.804354	0.066334
4758.112000	0.151394	0.184085	19.804354	0.066334
4761.163000	0.151394	0.184085	19.804672	0.066334
4764.104000	0.151394	0.184085	19.804672	0.066334
4767.158000	0.151394	0.184085	19.804354	0.066334
4770.129000	0.151394	0.184085	19.804354	0.065699
4773.117000	0.151394	0.184085	19.804354	0.065699
4776.195000	0.151394	0.184085	19.804672	0.065699
4779.108000	0.151394	0.184085	19.804672	0.066334
4782.097000	0.151394	0.184085	19.804672	0.066334
4785.108000	0.151394	0.184085	19.804354	0.066334
4788.110000	0.151394	0.184085	19.804672	0.066334
4791.099000	0.151394	0.184085	19.804672	0.066334
4794.099000	0.151394	0.184085	19.804354	0.066334
4797.180999	0.151394	0.184085	19.804354	0.066334
4800.106000	0.151394	0.184085	19.804672	0.066334
4803.106000	0.151394	0.184085	19.804672	0.066334
4806.168000	0.151394	0.184085	19.804672	0.066334
4809.115000	0.151394	0.184085	19.804672	0.066334
4812.106000	0.151394	0.184085	19.804672	0.066334
4815.114000	0.151394	0.184085	19.804672	0.066334
4818.106000	0.151394	0.184085	19.804672	0.066334
4821.131000	0.151394	0.184085	19.804672	0.066334
4824.118000	0.151394	0.184085	19.804354	0.066334
4827.110000	0.151394	0.184085	19.804672	0.066334
4830.106000	0.151394	0.184085	19.804354	0.065699
4833.098000	0.151394	0.184085	19.804672	0.066334
4836.181000	0.151394	0.184085	19.804354	0.066334
4839.115000	0.151394	0.184085	19.804354	0.066334
4842.110000	0.151394	0.184085	19.804354	0.066334
4845.115000	0.151394	0.184085	19.804354	0.066334
4848.168000	0.151394	0.184085	19.804354	0.066334
4851.106000	0.151394	0.184085	19.804672	0.066334
4854.114000	0.151394	0.184085	19.804354	0.066334
4857.111000	0.151394	0.184085	19.804354	0.066334
4860.160000	0.151394	0.184085	19.804672	0.066334
4863.111000	0.151394	0.184085	19.804672	0.066334
4866.106000	0.151394	0.184085	19.804354	0.065699
4869.106000	0.151394	0.184085	19.804672	0.066334
4872.193000	0.151394	0.184085	19.804354	0.066334
4875.189000	0.151394	0.184085	19.804354	0.066334
4878.099000	0.151394	0.184085	19.804354	0.066334
4881.136000	0.151394	0.184085	19.804354	0.065699
4884.116000	0.151394	0.184085	19.804354	0.066334
4887.108000	0.151394	0.184085	19.804354	0.065699
4890.108000	0.151394	0.184085	19.804354	0.066334
4893.128000	0.151394	0.184085	19.804354	0.066334
4896.177001	0.151394	0.184085	19.804354	0.066334
4899.107999	0.151394	0.184085	19.804354	0.066334
4902.157000	0.151394	0.184085	19.804354	0.065699
4905.153000	0.151394	0.184085	19.804354	0.066334
4908.108000	0.151394	0.184085	19.804354	0.065699
4911.112000	0.151077	0.184085	19.804354	0.065699
4914.116000	0.151394	0.184085	19.804354	0.066334
4917.108000	0.151394	0.184085	19.804354	0.065699
4920.179000	0.151394	0.184085	19.804037	0.066334
4923.108000	0.151394	0.184085	19.804354	0.066334
4926.116000	0.151077	0.184085	19.804354	0.065699
4929.107999	0.151394	0.184085	19.804354	0.065699
4932.116000	0.151077	0.184085	19.804037	0.066334
4935.108000	0.151394	0.184085	19.804037	0.066334
4938.128000	0.151394	0.184085	19.804354	0.065699
4941.112000	0.151394	0.184085	19.804354	0.065699
4944.183000	0.151394	0.184085	19.804037	0.066334
4947.156000	0.151394	0.184085	19.804354	0.065699
4950.109000	0.151394	0.184085	19.804354	0.065699
4953.217000	0.151394	0.184085	19.804354	0.065699
4956.117000	0.151394	0.184085	19.804354	0.065699
4959.101000	0.151394	0.184085	19.804354	0.066334
4962.138000	0.151077	0.184085	19.804672	0.065699
4965.126000	0.151394	0.184085	19.804672	0.065699
4968.208000	0.151077	0.184085	19.804354	0.065699
4971.192000	0.151077	0.184085	19.804354	0.065699
4974.129001	0.151077	0.184085	19.804354	0.065699
4977.117000	0.151077	0.184085	19.804354	0.066334
4980.121999	0.151394	0.184085	19.804354	0.065699
4983.121999	0.151077	0.184085	19.804354	0.066334
4986.118000	0.151394	0.184085	19.804354	0.065699
4989.113000	0.151394	0.184085	19.804354	0.065699
4992.119000	0.151394	0.184085	19.804354	0.065699
4995.110000	0.151077	0.184085	19.804037	0.065699
4998.159000	0.151077	0.184085	19.804354	0.065699
5001.103001	0.151394	0.184085	19.804354	0.065699
5004.116000	0.151394	0.184085	19.804354	0.065699
5007.104000	0.151394	0.184085	19.804354	0.065699
5010.136000	0.151394	0.184085	19.804354	0.065699
5013.111000	0.151077	0.184085	19.804037	0.065699
5016.127000	0.151077	0.184085	19.804354	0.066334
5019.198000	0.151077	0.184085	19.804354	0.065699
5022.186000	0.151394	0.184085	19.804354	0.065699
5025.121000	0.151077	0.184085	19.804354	0.065699
5028.180000	0.151077	0.184085	19.804037	0.066334
5031.117000	0.151077	0.184085	19.804037	0.065699
5034.105000	0.151077	0.184085	19.804354	0.065699
5037.118000	0.151077	0.184085	19.804354	0.065699
5040.106000	0.151077	0.184085	19.804354	0.065699
5043.178000	0.151394	0.184085	19.804037	0.065699
5046.135000	0.151394	0.184085	19.804037	0.065699
5049.136000	0.151077	0.184085	19.804037	0.065699
5052.168000	0.151077	0.184085	19.804037	0.065699
5055.177999	0.151077	0.184085	19.804037	0.065699
5058.107999	0.151077	0.184085	19.803719	0.065699
5061.146000	0.151394	0.184085	19.804037	0.065699
5064.158999	0.151077	0.184085	19.804037	0.065699
5067.125999	0.151077	0.184085	19.804037	0.065699
5070.135000	0.151077	0.184085	19.804037	0.065699
5073.118001	0.151077	0.184085	19.804037	0.066334
5076.110000	0.151077	0.184085	19.804037	0.065699
5079.122000	0.151077	0.184085	19.804037	0.065699
5082.188000	0.151394	0.184085	19.804354	0.065699
5085.118999	0.151077	0.184085	19.804037	0.065699
5088.123000	0.151394	0.184085	19.804037	0.065699
5091.121000	0.151077	0.184085	19.804037	0.065699
5094.129000	0.151077	0.183767	19.804037	0.065699
5097.121000	0.151077	0.184085	19.804037	0.065699
5100.124000	0.151077	0.184085	19.803719	0.065699
5103.120000	0.151394	0.184085	19.804037	0.065699
5106.113000	0.151077	0.184085	19.804037	0.065699
5109.129000	0.151077	0.184085	19.804037	0.065699
5112.120000	0.151394	0.184085	19.804037	0.065699
5115.136000	0.151077	0.184085	19.804037	0.065699
5118.113000	0.151077	0.184085	19.804037	0.066334
5121.112000	0.151077	0.184085	19.804037	0.065699
5124.112000	0.151394	0.183767	19.804037	0.065699
5127.133000	0.151394	0.184085	19.804037	0.065699
5130.129001	0.151394	0.184085	19.804037	0.065699
5133.173999	0.151077	0.184085	19.804354	0.065699
5136.112000	0.151077	0.184085	19.804354	0.065699
5139.162000	0.151394	0.184085	19.804037	0.065699
5142.114000	0.151394	0.184085	19.804354	0.065699
5145.187000	0.151077	0.183767	19.804354	0.065699
5148.121000	0.151077	0.183767	19.804037	0.065699
5151.121000	0.151077	0.184085	19.804354	0.065699
5154.130000	0.151077	0.184085	19.804037	0.065699
5157.133000	0.151077	0.183767	19.804037	0.065699
5160.113000	0.151077	0.184085	19.804037	0.065699
5163.121000	0.151077	0.184085	19.804037	0.065699
5166.113000	0.151394	0.184085	19.804037	0.065699
5169.193000	0.151077	0.184085	19.804037	0.065699
5172.134000	0.151394	0.183767	19.804354	0.065699
5175.130000	0.151077	0.184085	19.804037	0.065699
5178.116000	0.151077	0.184085	19.804354	0.065699
5181.123000	0.151077	0.183767	19.804354	0.065699
5184.123000	0.151077	0.184085	19.804037	0.065699
5187.184999	0.151077	0.184085	19.804354	0.065699
5190.194000	0.151077	0.184085	19.804354	0.065699
5193.132000	0.151394	0.184085	19.804354	0.065699
5196.199000	0.151394	0.183767	19.804354	0.065699
5199.144000	0.151077	0.184085	19.804037	0.065699
5202.137000	0.151077	0.184085	19.804037	0.065699
5205.134000	0.151077	0.183767	19.804037	0.065699
5208.162000	0.151077	0.184085	19.804037	0.065699
5211.195000	0.151077	0.184085	19.804037	0.065699
5214.171000	0.151077	0.184085	19.804037	0.066334
5217.154000	0.151077	0.184085	19.804037	0.065699
5220.191000	0.151077	0.184085	19.804037	0.065699
5223.217000	0.151077	0.183767	19.804037	0.065699
5226.117000	0.151077	0.184085	19.804037	0.065699
5229.118001	0.151077	0.184085	19.804037	0.065699
5232.118001	0.151077	0.184085	19.804037	0.065699
5235.134000	0.151077	0.184085	19.804037	0.065699
5238.199999	0.151077	0.184085	19.804037	0.065699
5241.117000	0.151077	0.184085	19.804037	0.065699
5244.130000	0.151077	0.183767	19.804037	0.065699
5247.201000	0.151077	0.183767	19.804037	0.065699
5250.138000	0.151077	0.184085	19.804037	0.065699
5253.126000	0.151077	0.184085	19.804037	0.065699
5256.130000	0.151077	0.184085	19.804037	0.065699
5259.150000	0.151394	0.184085	19.804037	0.065699
5262.134000	0.151077	0.183767	19.804037	0.065699
5265.199999	0.151394	0.183767	19.804037	0.065699
5268.199999	0.151077	0.184085	19.804037	0.065699
5271.131000	0.151077	0.184085	19.804037	0.066334
5274.125999	0.151077	0.184085	19.804037	0.065699
5277.188000	0.151077	0.184085	19.804037	0.065699
5280.127000	0.151077	0.183767	19.804037	0.065699
5283.135000	0.151077	0.184085	19.804037	0.065699
5286.142000	0.151394	0.184085	19.804037	0.065699
5289.133999	0.151077	0.184085	19.804037	0.065699
5292.133999	0.151077	0.184085	19.804037	0.065699
5295.135000	0.151077	0.184085	19.804037	0.065699
5298.191999	0.151077	0.183767	19.804037	0.065699
5301.130000	0.151077	0.184085	19.804037	0.065699
5304.130000	0.151077	0.183767	19.803719	0.065699
5307.163000	0.151077	0.183767	19.803719	0.065699
5310.118001	0.151077	0.184085	19.804037	0.065699
5313.126000	0.151077	0.184085	19.804037	0.065699
5316.125000	0.151394	0.183767	19.803719	0.065699
5319.118999	0.151077	0.183767	19.803719	0.065699
5322.147000	0.151077	0.183767	19.803719	0.065699
5325.132000	0.151077	0.184085	19.803719	0.065699
5328.120000	0.151077	0.184085	19.804037	0.065699
5331.121000	0.151077	0.184085	19.804037	0.065699
5334.132000	0.151077	0.184085	19.804037	0.065699
5337.136000	0.151077	0.183767	19.804037	0.065699
5340.132000	0.151077	0.184085	19.804037	0.065699
5343.132000	0.151077	0.184085	19.804037	0.065699
5346.128000	0.151077	0.184085	19.804037	0.065699
5349.177999	0.151077	0.183767	19.804037	0.065699
5352.216000	0.151077	0.183767	19.804037	0.065699
5355.128000	0.151077	0.183767	19.803719	0.065699
5358.120000	0.151394	0.184085	19.803719	0.065699
5361.133000	0.151077	0.184085	19.804037	0.065699
5364.136000	0.151077	0.183767	19.804037	0.065699
5367.147999	0.151077	0.184085	19.803719	0.065699
5370.218999	0.151077	0.183767	19.804037	0.065699
5373.191000	0.151077	0.183767	19.804037	0.065699
5376.128000	0.151077	0.183767	19.803719	0.065699
5379.199000	0.151077	0.184085	19.803719	0.065699
5382.137000	0.151077	0.184085	19.803719	0.065699
5385.122000	0.151077	0.184085	19.804037	0.065699
5388.134000	0.151077	0.183767	19.803719	0.065699
5391.130000	0.151077	0.183767	19.803719	0.065699
5394.132999	0.151077	0.183767	19.803719	0.065699
5397.153000	0.151077	0.183767	19.803719	0.065699
5400.129000	0.151077	0.184085	19.803719	0.065699
5403.138000	0.151077	0.184085	19.803719	0.065699
5406.121000	0.151077	0.184085	19.803719	0.065699
5409.130000	0.151077	0.183767	19.803719	0.065699
5412.133000	0.151077	0.183767	19.803719	0.065699
5415.153000	0.151077	0.183767	19.803719	0.065699
5418.121000	0.151077	0.183767	19.803719	0.065699
5421.237999	0.151077	0.183767	19.803719	0.065699
5424.129000	0.151077	0.184085	19.803719	0.065699
5427.121000	0.151077	0.183767	19.804037	0.065699
5430.130000	0.151077	0.183767	19.803719	0.065699
5433.130000	0.151077	0.183767	19.803719	0.065699
5436.122000	0.151077	0.183767	19.803719	0.065699
5439.204000	0.151077	0.183767	19.803719	0.065699
5442.122000	0.151077	0.184085	19.803719	0.065699
5445.140000	0.151077	0.183767	19.803719	0.065699
5448.140000	0.151077	0.184085	19.803085	0.065699
5451.137000	0.151077	0.184085	19.803719	0.065699
5454.149000	0.151077	0.183767	19.803719	0.065699
5457.165000	0.150759	0.183767	19.803719	0.065699
5460.142000	0.151077	0.183767	19.803719	0.065699
5463.134000	0.151077	0.183767	19.803719	0.065699
5466.135000	0.151077	0.183767	19.803719	0.065699
5469.139000	0.151077	0.183767	19.803719	0.065699
5472.199999	0.151077	0.184085	19.803719	0.065699
5475.205000	0.151077	0.183767	19.803719	0.065699
5478.127000	0.151077	0.183767	19.803719	0.065699
5481.136000	0.151077	0.184085	19.803719	0.065699
5484.128000	0.151077	0.183767	19.803719	0.065699
5487.128000	0.151077	0.183767	19.803719	0.065699
5490.148000	0.151077	0.183767	19.803719	0.065699
5493.146000	0.151077	0.183767	19.803719	0.065699
5496.147000	0.151077	0.183767	19.803719	0.065699
5499.146000	0.151077	0.183767	19.803719	0.065699
5502.147000	0.151077	0.183767	19.803719	0.065699
5505.205000	0.151077	0.183767	19.803085	0.065699
5508.196000	0.151077	0.183767	19.804037	0.065699
5511.151000	0.151077	0.184085	19.803719	0.065699
5514.183000	0.151077	0.183767	19.803719	0.065382
5517.130000	0.150759	0.183767	19.803719	0.065699
5520.158000	0.150759	0.183767	19.803719	0.065699
5523.188000	0.151077	0.183767	19.803719	0.065699
5526.146000	0.151077	0.184085	19.803719	0.065699
5529.147000	0.151077	0.183767	19.803719	0.065699
5532.146000	0.151077	0.183767	19.803719	0.065699
5535.138000	0.151077	0.183767	19.803085	0.065699
5538.130000	0.151077	0.183767	19.803719	0.065699
5541.150000	0.151077	0.183767	19.803719	0.065699
5544.130000	0.151077	0.184085	19.803719	0.065699
5547.203000	0.151077	0.183767	19.803085	0.065699
5550.142000	0.151077	0.183767	19.803719	0.065699
5553.191999	0.150759	0.183767	19.803719	0.065699
5556.146000	0.151077	0.183767	19.803719	0.065699
5559.138000	0.151077	0.183767	19.803719	0.065699
5562.180000	0.150759	0.183767	19.803085	0.065699
5565.159000	0.151077	0.183767	19.803719	0.065699
5568.131000	0.150759	0.183767	19.803719	0.065382
5571.140000	0.151077	0.183767	19.803719	0.065699
5574.147999	0.151077	0.183767	19.803085	0.065699
5577.149000	0.151077	0.183767	19.803719	0.065382
5580.198000	0.151077	0.183767	19.803085	0.065699
5583.132999	0.151077	0.183767	19.803085	0.065699
5586.240000	0.150759	0.183767	19.803719	0.065699
5589.132999	0.151077	0.183767	19.803719	0.065699
5592.144000	0.151077	0.183767	19.803719	0.065699
5595.252000	0.151077	0.183767	19.803085	0.065382
5598.148000	0.151077	0.183767	19.803085	0.065699
5601.202000	0.151077	0.183767	19.803719	0.065699
5604.132999	0.151077	0.183767	19.803719	0.065699
5607.239000	0.151077	0.183767	19.803085	0.065699
5610.202000	0.151077	0.183767	19.803719	0.065699
5613.140000	0.151077	0.183767	19.803719	0.065382
5616.144000	0.151077	0.183767	19.803085	0.065699
5619.223000	0.151077	0.183767	19.803085	0.065699
5622.133000	0.151077	0.183767	19.803719	0.065699
5625.185000	0.151077	0.183767	19.803085	0.065699
5628.142000	0.151077	0.183767	19.803085	0.065699
5631.140999	0.151077	0.183767	19.803085	0.065382
5634.132999	0.151077	0.184085	19.803085	0.065699
5637.175000	0.151077	0.183767	19.803085	0.065699
5640.204000	0.151077	0.183767	19.803085	0.065699
5643.141000	0.151077	0.183767	19.803085	0.065699
5646.153000	0.151077	0.183767	19.803085	0.065382
5649.133000	0.151077	0.183767	19.803085	0.065382
5652.195000	0.151077	0.183767	19.803085	0.065699
5655.150000	0.151077	0.183767	19.803085	0.065699
5658.146000	0.150759	0.183767	19.803085	0.065699
5661.141000	0.151077	0.183767	19.803085	0.065699
5664.141000	0.151077	0.183767	19.803085	0.065699
5667.158000	0.150759	0.183767	19.803085	0.065382
5670.134000	0.151077	0.183767	19.803085	0.065699
5673.162000	0.150759	0.183767	19.803085	0.065699
5676.147000	0.151077	0.183767	19.803719	0.065699
5679.147999	0.151077	0.183767	19.803085	0.065699
5682.151999	0.151077	0.183767	19.803085	0.065699
5685.151999	0.150759	0.183767	19.803085	0.065699
5688.151999	0.150759	0.183767	19.803719	0.065382
5691.143000	0.151077	0.183767	19.803719	0.065699
5694.169000	0.150759	0.183767	19.803085	0.065699
5697.153000	0.150759	0.183767	19.803085	0.065699
5700.137000	0.151077	0.183767	19.803085	0.065382
5703.144000	0.151077	0.183767	19.803085	0.065699
5706.157000	0.150759	0.183767	19.803085	0.065699
5709.195000	0.150759	0.183767	19.803085	0.065699
5712.219000	0.151077	0.183767	19.803085	0.065699
5715.137000	0.150759	0.183767	19.803085	0.065382
5718.137000	0.151077	0.183767	19.803085	0.065382
5721.232000	0.150759	0.183767	19.803719	0.065382
5724.211000	0.151077	0.183767	19.803085	0.065699
5727.150000	0.150759	0.183767	19.803085	0.065699
5730.152999	0.150759	0.183767	19.803085	0.065382
5733.216000	0.151077	0.183767	19.803085	0.065699
5736.153000	0.151077	0.183767	19.803085	0.065699
5739.150000	0.150759	0.183767	19.803719	0.065382
5742.151000	0.151077	0.183767	19.803085	0.065699
5745.140000	0.151077	0.183767	19.803085	0.065382
5748.202000	0.151077	0.183767	19.803085	0.065699
5751.156000	0.151077	0.183767	19.803085	0.065699
5754.152000	0.151077	0.183767	19.803085	0.065382
5757.140000	0.150759	0.183767	19.802767	0.065382
5760.238000	0.151077	0.183767	19.803085	0.065699
5763.147000	0.150759	0.183767	19.802767	0.065699
5766.222000	0.150759	0.183767	19.802767	0.065699
5769.156000	0.151077	0.183767	19.803085	0.065699
5772.226000	0.151077	0.183767	19.803085	0.065382
5775.205000	0.151077	0.183767	19.802767	0.065699
5778.205000	0.150759	0.183767	19.802767	0.065382
5781.147000	0.151077	0.183767	19.803085	0.065382
5784.140000	0.151077	0.183767	19.803085	0.065699
5787.147999	0.150759	0.183767	19.803085	0.065699
5790.151999	0.150759	0.183767	19.803085	0.065382
5793.148000	0.151077	0.183767	19.803085	0.065382
5796.160000	0.151077	0.183767	19.803085	0.065382
5799.210000	0.151077	0.183767	19.803085	0.065382
5802.142000	0.150759	0.183767	19.803085	0.065699
5805.150000	0.151077	0.183767	19.803085	0.065699
5808.140999	0.150759	0.183767	19.803719	0.065699
5811.154000	0.150759	0.183767	19.803085	0.065382
5814.166000	0.150759	0.183767	19.803085	0.065699
5817.149000	0.151077	0.183767	19.803719	0.065382
5820.149000	0.151077	0.183767	19.803085	0.065382
5823.141000	0.150759	0.183767	19.803085	0.065382
5826.165000	0.150759	0.183767	19.803085	0.065699
5829.149000	0.151077	0.183767	19.803085	0.065699
5832.142000	0.150759	0.183767	19.803085	0.065382
5835.161000	0.150759	0.183767	19.803085	0.065382
5838.140999	0.150759	0.183767	19.803085	0.065382
5841.204000	0.150759	0.183767	19.803085	0.065382
5844.174000	0.151077	0.183767	19.803085	0.065382
5847.160000	0.151077	0.183767	19.803085	0.065699
5850.153000	0.151077	0.183767	19.803085	0.065382
5853.170000	0.150759	0.183767	19.803085	0.065382
5856.157000	0.151077	0.183767	19.803085	0.065382
5859.142000	0.150759	0.183767	19.803085	0.065382
5862.177999	0.150759	0.183767	19.803085	0.065699
5865.157000	0.151077	0.183767	19.803085	0.065382
5868.158000	0.150759	0.183767	19.803085	0.065382
5871.167000	0.151077	0.183767	19.803085	0.065699
5874.144000	0.151077	0.183767	19.803085	0.065382
5877.144000	0.151077	0.183767	19.803719	0.065699
5880.144000	0.151077	0.183767	19.803085	0.065382
5883.145000	0.151077	0.183767	19.803085	0.065382
5886.145000	0.150759	0.183767	19.803085	0.065382
5889.161000	0.151077	0.183767	19.803085	0.065699
5892.170000	0.150759	0.183767	19.803085	0.065699
5895.212000	0.150759	0.183767	19.803085	0.065382
5898.157000	0.150759	0.183767	19.803085	0.065382
5901.161000	0.150759	0.183767	19.803085	0.065382
5904.162000	0.150759	0.183767	19.803085	0.065699
5907.161000	0.150759	0.183767	19.803085	0.065699
5910.253000	0.150759	0.183767	19.803085	0.065699
5913.145000	0.150759	0.183767	19.803085	0.065382
5916.158000	0.150759	0.183767	19.803085	0.065699
5919.165000	0.150759	0.183450	19.803085	0.065382
5922.146000	0.150759	0.183767	19.803085	0.065382
5925.153000	0.150759	0.183767	19.802767	0.065382
5928.157000	0.150759	0.183767	19.802767	0.065699
5931.237000	0.150759	0.183767	19.802767	0.065382
5934.153000	0.150759	0.183767	19.802767	0.065699
5937.158000	0.150759	0.183767	19.803085	0.065699
5940.147000	0.150759	0.183767	19.802767	0.065382
5943.246000	0.150759	0.183767	19.802767	0.065382
5946.154000	0.150759	0.183767	19.802767	0.065382
5949.220000	0.150759	0.183767	19.802767	0.065382
5952.172000	0.150759	0.183767	19.802767	0.065382
5955.234000	0.150759	0.183767	19.802767	0.065382
5958.147000	0.150759	0.183767	19.802767	0.065382
5961.155001	0.151077	0.183767	19.802767	0.065382
5964.175000	0.150759	0.183767	19.802767	0.065382
5967.155000	0.150759	0.183767	19.802767	0.065382
5970.155000	0.150759	0.183767	19.802767	0.065382
5973.158999	0.150759	0.183767	19.802767	0.065382
5976.147000	0.150759	0.183767	19.802767	0.065382
5979.180000	0.150759	0.183767	19.802767	0.065382
5982.155000	0.150759	0.183767	19.802767	0.065382
5985.155000	0.150759	0.183767	19.803085	0.065382
5988.223000	0.150759	0.183767	19.803085	0.065699
5991.165000	0.150759	0.183767	19.802767	0.065382
5994.156000	0.150759	0.183767	19.803085	0.065382
5997.165000	0.150759	0.183767	19.803085	0.065699
6000.189000	0.150759	0.183767	19.802767	0.065699
6003.149000	0.150759	0.183767	19.803085	0.065382
6006.148000	0.150759	0.183767	19.802767	0.065382
6009.160000	0.150759	0.183767	19.803085	0.065699
6012.196000	0.150759	0.183767	19.803085	0.065382
6015.156000	0.150759	0.183767	19.803085	0.065382
6018.164000	0.151077	0.183767	19.803085	0.065382
6021.169000	0.150759	0.183767	19.803085	0.065382
6024.156000	0.150759	0.183767	19.802767	0.065382
6027.165000	0.150759	0.183767	19.802767	0.065699
6030.156000	0.150759	0.183767	19.802767	0.065382
6033.157000	0.150759	0.183767	19.803085	0.065382
6036.166000	0.150759	0.183767	19.802767	0.065382
6039.166000	0.150759	0.183767	19.802767	0.065382
6042.165000	0.150759	0.183767	19.802767	0.065382
6045.162000	0.150759	0.183767	19.803085	0.065382
6048.157000	0.150759	0.183767	19.803085	0.065382
6051.262000	0.150759	0.183767	19.802767	0.065382
6054.164000	0.150759	0.183767	19.802767	0.065382
6057.153000	0.150759	0.183767	19.802767	0.065382
6060.169000	0.150759	0.183767	19.802767	0.065699
6063.160000	0.150759	0.183767	19.802767	0.065382
6066.189000	0.150759	0.183767	19.802767	0.065382
6069.152999	0.150759	0.183767	19.803085	0.065382
6072.239000	0.150759	0.183767	19.803085	0.065699
6075.164000	0.150759	0.183767	19.802767	0.065382
6078.168000	0.150759	0.183767	19.802767	0.065382
6081.153000	0.150759	0.183767	19.802767	0.065382
6084.152000	0.150759	0.183767	19.802767	0.065382
6087.176000	0.150759	0.183767	19.802767	0.065382
6090.152000	0.150759	0.183767	19.802767	0.065382
6093.151999	0.150759	0.183450	19.802767	0.065382
6096.251999	0.150759	0.183767	19.802767	0.065382
6099.243000	0.150759	0.183767	19.802767	0.065382
6102.153000	0.150759	0.183767	19.803085	0.065382
6105.174000	0.150759	0.183767	19.802767	0.065382
6108.178000	0.150759	0.183767	19.802767	0.065382
6111.186000	0.150759	0.183767	19.803085	0.065382
6114.169000	0.150759	0.183767	19.803085	0.065382
6117.170000	0.150759	0.183767	19.802767	0.065382
6120.244999	0.150759	0.183767	19.802767	0.065382
6123.170000	0.150759	0.183767	19.803085	0.065382
6126.162000	0.150759	0.183767	19.802767	0.065382
6129.154000	0.150759	0.183767	19.802767	0.065382
6132.162000	0.150759	0.183767	19.802767	0.065699
6135.155000	0.150759	0.183767	19.802767	0.065382
6138.154000	0.150759	0.183767	19.802767	0.065382
6141.252000	0.150759	0.183767	19.802767	0.065382
6144.167000	0.150759	0.183450	19.802767	0.065382
6147.163000	0.150759	0.183767	19.802767	0.065382
6150.155000	0.150759	0.183767	19.802767	0.065382
6153.167000	0.150759	0.183767	19.802767	0.065382
6156.180000	0.150759	0.183767	19.802767	0.065699
6159.156000	0.150759	0.183767	19.802767	0.065699
6162.234000	0.150759	0.183767	19.802767	0.065382
6165.171000	0.150759	0.183767	19.802767	0.065382
6168.171000	0.150759	0.183767	19.802767	0.065382
6171.162999	0.150759	0.183767	19.802767	0.065382
6174.163000	0.150759	0.183450	19.802767	0.065382
6177.209000	0.150759	0.183767	19.802767	0.065382
6180.168000	0.150759	0.183767	19.802767	0.065382
6183.184999	0.150759	0.183767	19.802767	0.065382
6186.156000	0.150759	0.183767	19.802767	0.065382
6189.239000	0.150759	0.183767	19.802767	0.065382
6192.238000	0.151077	0.183767	19.802450	0.065382
6195.170000	0.150759	0.183767	19.802767	0.065382
6198.173999	0.150759	0.183767	19.802767	0.065382
6201.232000	0.150759	0.183767	19.802767	0.065382
6204.157000	0.150759	0.183767	19.802767	0.065382
6207.169000	0.150759	0.183767	19.802767	0.065382
6210.183000	0.150759	0.183450	19.802767	0.065382
6213.174000	0.150759	0.183767	19.802767	0.065382
6216.195000	0.150759	0.183767	19.802767	0.065382
6219.167000	0.150759	0.183767	19.802767	0.065382
6222.175000	0.150759	0.183767	19.802767	0.065382
6225.166000	0.150759	0.183767	19.802767	0.065382
6228.158000	0.150759	0.183767	19.802450	0.065382
6231.167000	0.150759	0.183767	19.802767	0.065382
6234.158000	0.150759	0.183767	19.802450	0.065382
6237.171000	0.150759	0.183767	19.802450	0.065382
6240.262000	0.150759	0.183767	19.802767	0.065382
6243.225000	0.150759	0.183450	19.802767	0.065382
6246.166000	0.150759	0.183767	19.802767	0.065382
6249.185999	0.150759	0.183450	19.802767	0.065382
6252.279000	0.150759	0.183767	19.802767	0.065382
6255.235000	0.150759	0.183450	19.802767	0.065382
6258.203000	0.150759	0.183767	19.802767	0.065382
6261.166000	0.150759	0.183767	19.802767	0.065382
6264.158000	0.150759	0.183767	19.802767	0.065382
6267.158000	0.150759	0.183767	19.802767	0.065382
6270.187000	0.150759	0.183767	19.802767	0.065382
6273.174000	0.150759	0.183767	19.802767	0.065382
6276.166000	0.150759	0.183767	19.802767	0.065382
6279.177999	0.150759	0.183767	19.802767	0.065382
6282.219000	0.150759	0.183767	19.802450	0.065382
6285.166000	0.150759	0.183767	19.802450	0.065382
6288.175000	0.150759	0.183767	19.802767	0.065382
6291.171000	0.150759	0.183767	19.802450	0.065382
6294.175000	0.150759	0.183767	19.802767	0.065382
6297.232000	0.150759	0.183767	19.802767	0.065382
6300.193000	0.150759	0.183767	19.802767	0.065382
6303.166999	0.150759	0.183450	19.802767	0.065382
6306.166999	0.150759	0.183450	19.802767	0.065382
6309.158999	0.150759	0.183450	19.802767	0.065382
6312.164000	0.150759	0.183767	19.802767	0.065382
6315.172000	0.150759	0.183767	19.802767	0.065382
6318.169000	0.150759	0.183767	19.802767	0.065382
6321.233000	0.150759	0.183767	19.802767	0.065382
6324.168000	0.150759	0.183767	19.802767	0.065382
6327.180000	0.150759	0.183767	19.802767	0.065382
6330.189000	0.150759	0.183450	19.802767	0.065382
6333.169000	0.150759	0.183767	19.802767	0.065382
6336.169000	0.150759	0.183767	19.802767	0.065382
6339.169000	0.150759	0.183450	19.802767	0.065382
6342.161000	0.150759	0.183767	19.802767	0.065382
6345.282000	0.150759	0.183767	19.802767	0.065382
6348.162000	0.150759	0.183450	19.802450	0.065382
6351.250000	0.150759	0.183450	19.802767	0.065382
6354.223000	0.150759	0.183450	19.802767	0.065382
6357.170000	0.150759	0.183767	19.802767	0.065382
6360.162000	0.150759	0.183767	19.802767	0.065382
6363.162000	0.150759	0.183767	19.802767	0.065382
6366.170000	0.150759	0.183767	19.802767	0.065382
6369.178000	0.150759	0.183767	19.802450	0.065382
6372.162000	0.150759	0.183450	19.802767	0.065382
6375.220000	0.150759	0.183767	19.802450	0.065382
6378.178000	0.150759	0.183767	19.802767	0.065382
6381.178999	0.150759	0.183767	19.802450	0.065382
6384.177999	0.150759	0.183767	19.802767	0.065382
6387.175000	0.150759	0.183767	19.802450	0.065382
6390.223000	0.150759	0.183767	19.802450	0.065382
6393.174000	0.150759	0.183767	19.802450	0.065382
6396.190000	0.150759	0.183767	19.802767	0.065382
6399.281000	0.150759	0.183767	19.802450	0.065382
6402.170000	0.150759	0.183767	19.802767	0.065382
6405.236000	0.150759	0.183767	19.802450	0.065382
6408.163000	0.150759	0.183450	19.802450	0.065382
6411.163000	0.150759	0.183767	19.802450	0.065382
6414.163000	0.150759	0.183767	19.802450	0.065382
6417.181000	0.150759	0.183450	19.802450	0.065382
6420.187000	0.150759	0.183767	19.802450	0.065382
6423.163000	0.150759	0.183767	19.802450	0.065382
6426.179000	0.150759	0.183450	19.802450	0.065382
6429.178000	0.150759	0.183767	19.802450	0.065382
6432.185999	0.150759	0.183767	19.802450	0.065382
6435.163000	0.150759	0.183450	19.802450	0.065382
6438.170000	0.150759	0.183767	19.802450	0.065382
6441.180000	0.150759	0.183450	19.802450	0.065382
6444.263000	0.150759	0.183450	19.802450	0.065382
6447.180000	0.150759	0.183450	19.802450	0.065382
6450.209000	0.150759	0.183767	19.802450	0.065382
6453.176000	0.150759	0.183450	19.802767	0.065382
6456.194000	0.150759	0.183767	19.802450	0.065382
6459.177000	0.150759	0.183450	19.802450	0.065382
6462.227000	0.150759	0.183767	19.802450	0.065382
6465.225000	0.150759	0.183450	19.802450	0.065382
6468.177999	0.150759	0.183450	19.802450	0.065382
6471.209000	0.150759	0.183767	19.802450	0.065382
6474.231000	0.150759	0.183450	19.802450	0.065382
6477.182000	0.150759	0.183767	19.802450	0.065382
6480.174000	0.150759	0.183450	19.802132	0.065382
6483.178999	0.150124	0.183450	19.802450	0.065382
6486.168000	0.150759	0.183450	19.802450	0.065382
6489.188000	0.150759	0.183450	19.802450	0.065382
6492.184000	0.150759	0.183450	19.802450	0.065382
6495.184999	0.150759	0.183450	19.802450	0.065064
6498.267000	0.150759	0.183767	19.802450	0.065382
6501.181000	0.150759	0.183450	19.802132	0.065382
6504.181000	0.150759	0.183767	19.802450	0.065382
6507.259000	0.150759	0.183450	19.802450	0.065382
6510.218999	0.150759	0.183450	19.802132	0.065064
6513.176000	0.150124	0.183767	19.802450	0.065382
6516.169000	0.150759	0.183450	19.802450	0.065382
6519.181000	0.150124	0.183450	19.802450	0.065382
6522.181000	0.150759	0.183450	19.802450	0.065382
6525.245000	0.150759	0.183450	19.802450	0.065064
6528.176000	0.150759	0.183767	19.802450	0.065382
6531.227000	0.150759	0.183450	19.802450	0.065382
6534.176000	0.150759	0.183450	19.802132	0.065382
6537.263000	0.150759	0.183450	19.802132	0.065382
6540.180000	0.150759	0.183767	19.802450	0.065382
6543.288000	0.150759	0.183450	19.802450	0.065382
6546.184000	0.150124	0.183767	19.802450	0.065382
6549.221000	0.150759	0.183767	19.802132	0.065382
6552.168000	0.150759	0.183450	19.802450	0.065064
6555.268000	0.150759	0.183767	19.802450	0.065382
6558.201000	0.150759	0.183450	19.802450	0.065382
6561.168000	0.150759	0.183450	19.802450	0.065382
6564.168000	0.150124	0.183767	19.802450	0.065382
6567.190000	0.150759	0.183450	19.802132	0.065382
6570.177000	0.150124	0.183450	19.802450	0.065382
6573.175000	0.150759	0.183450	19.802450	0.065382
6576.238000	0.150759	0.183450	19.802132	0.065382
6579.188000	0.150759	0.183767	19.802132	0.065382
6582.289000	0.150124	0.183450	19.802132	0.065382
6585.173000	0.150759	0.183450	19.802132	0.065064
6588.185999	0.150759	0.183450	19.802132	0.065382
6591.173999	0.150759	0.183450	19.802450	0.065382
6594.199000	0.150759	0.183767	19.802132	0.065382
6597.176000	0.150759	0.183767	19.802132	0.065382
6600.177000	0.150759	0.183767	19.802132	0.065382
6603.260000	0.150759	0.183450	19.802132	0.065382
6606.178000	0.150759	0.183450	19.802132	0.065382
6609.187000	0.150759	0.183450	19.802132	0.065382
6612.181000	0.150759	0.183450	19.802132	0.065382
6615.205000	0.150759	0.183450	19.802132	0.065382
6618.180999	0.150759	0.183450	19.802132	0.065382
6621.294000	0.150759	0.183450	19.802132	0.065382
6624.260000	0.150759	0.183767	19.802132	0.065382
6627.215000	0.150759	0.183767	19.802450	0.065382
6630.190000	0.150759	0.183450	19.802132	0.065382
6633.190000	0.150759	0.183450	19.802132	0.065382
6636.189000	0.150124	0.183450	19.802132	0.065382
6639.182000	0.150759	0.183767	19.802450	0.065382
6642.257000	0.150759	0.183450	19.802132	0.065382
6645.183000	0.150759	0.183767	19.802132	0.065382
6648.196000	0.150124	0.183450	19.802132	0.065382
6651.197000	0.150124	0.183450	19.802132	0.065382
6654.250000	0.150124	0.183767	19.802132	0.065382
6657.193000	0.150124	0.183450	19.802450	0.065382
6660.188000	0.150124	0.183450	19.802132	0.065382
6663.251000	0.150759	0.183450	19.802132	0.065064
6666.202000	0.150124	0.183450	19.802132	0.065382
6669.188000	0.150759	0.183450	19.802132	0.065382
6672.194000	0.150759	0.183450	19.802132	0.065064
6675.202000	0.150759	0.183450	19.802132	0.065382
6678.256000	0.150759	0.183450	19.802132	0.065382
6681.200000	0.150124	0.183450	19.802450	0.065382
6684.192000	0.150759	0.183450	19.802132	0.065064
6687.193000	0.150124	0.183450	19.802132	0.065382
6690.264000	0.150124	0.183450	19.802132	0.065382
6693.196000	0.150124	0.183450	19.802132	0.065382
6696.203000	0.150759	0.183450	19.802450	0.065382
6699.203000	0.150759	0.183450	19.802132	0.065382
6702.258000	0.150759	0.183450	19.802132	0.065382
6705.228000	0.150759	0.183450	19.802132	0.065382
6708.232000	0.150124	0.183450	19.802132	0.065064
6711.252000	0.150759	0.183450	19.802450	0.065382
6714.207000	0.150759	0.183450	19.802132	0.065382
6717.215000	0.150124	0.183450	19.802132	0.065382
6720.206999	0.150124	0.183450	19.802132	0.065382
6723.227000	0.150124	0.183450	19.802132	0.065382
6726.240000	0.150759	0.183450	19.802450	0.065382
6729.210999	0.150124	0.183450	19.802450	0.065382
6732.203000	0.150124	0.183450	19.802132	0.065382
6735.211000	0.150124	0.183450	19.802132	0.065382
6738.196000	0.150759	0.183450	19.802450	0.065382
6741.229000	0.150759	0.183767	19.802450	0.065382
6744.223000	0.150759	0.183450	19.802450	0.065382
6747.212000	0.150124	0.183450	19.802450	0.065382
6750.237000	0.150759	0.183450	19.802450	0.065382
6753.259000	0.150759	0.183450	19.802450	0.065382
6756.280000	0.150124	0.183450	19.802450	0.065382
6759.210000	0.150124	0.183450	19.802132	0.065382
6762.199000	0.150124	0.183767	19.802450	0.065382
6765.215000	0.150124	0.183767	19.802450	0.065382
6768.294000	0.150124	0.183450	19.802450	0.065382
6771.279000	0.150759	0.183450	19.802450	0.065382
6774.223000	0.150759	0.183450	19.802450	0.065382
6777.215000	0.150759	0.183450	19.802450	0.065382
6780.318000	0.150759	0.183450	19.802132	0.065382
6783.214000	0.150124	0.183450	19.802132	0.065064
6786.215000	0.150124	0.183450	19.802132	0.065382
6789.215000	0.150124	0.183767	19.802132	0.065382
6792.207000	0.150759	0.183450	19.802132	0.065382
6795.215000	0.150759	0.183767	19.802450	0.065382
6798.198000	0.150759	0.183450	19.802132	0.065382
6801.206000	0.150759	0.183450	19.802450	0.065382
6804.214000	0.150759	0.183450	19.802132	0.065064
6807.214000	0.150124	0.183450	19.802132	0.065064
6810.214000	0.150124	0.183450	19.802132	0.065382
6813.277000	0.150124	0.183767	19.802132	0.065382
6816.251000	0.150124	0.183450	19.802132	0.065382
6819.211000	0.150759	0.183450	19.802132	0.065064
6822.217999	0.150124	0.183450	19.802132	0.065382
6825.206999	0.150759	0.183450	19.802132	0.065382
6828.270000	0.150759	0.183450	19.802132	0.065382
6831.228000	0.150124	0.183450	19.802132	0.065382
6834.201000	0.150759	0.183450	19.802132	0.065382
6837.200000	0.150124	0.183450	19.802132	0.065382
6840.200000	0.150124	0.183450	19.802132	0.065064
6843.232000	0.150124	0.183450	19.802132	0.065382
6846.211999	0.150124	0.183450	19.802450	0.065382
6849.208000	0.150759	0.183450	19.802132	0.065382
6852.208000	0.150759	0.183450	19.802450	0.065382
6855.229000	0.150124	0.183450	19.802450	0.065382
6858.214000	0.150124	0.183450	19.802450	0.065382
6861.222000	0.150124	0.183450	19.802132	0.065382
6864.203000	0.150759	0.183450	19.802450	0.065382
6867.210001	0.150124	0.183450	19.802450	0.065382
6870.210001	0.150124	0.183450	19.802450	0.065382
6873.211999	0.150124	0.183450	19.802450	0.065064
6876.204000	0.150759	0.183450	19.802132	0.065382
6879.213000	0.150124	0.183450	19.802132	0.065382
6882.278000	0.150759	0.183450	19.802132	0.065064
6885.212000	0.150124	0.183450	19.802132	0.065064
6888.230000	0.150124	0.183450	19.802132	0.065382
6891.207000	0.150124	0.183450	19.802132	0.065382
6894.213000	0.150124	0.183450	19.802132	0.065382
6897.218000	0.150759	0.183450	19.801815	0.065382
6900.217999	0.150759	0.183450	19.802132	0.065382
6903.217000	0.150124	0.183450	19.802132	0.065064
6906.227000	0.150124	0.183450	19.802132	0.065382
6909.212000	0.150124	0.183450	19.802132	0.065064
6912.217000	0.150124	0.183450	19.802132	0.065064
6915.215000	0.150124	0.183450	19.801815	0.065382
6918.305000	0.150124	0.183450	19.802132	0.065382
6921.215000	0.150124	0.183450	19.802132	0.065382
6924.230999	0.150124	0.183450	19.802132	0.065382
6927.301000	0.150124	0.183450	19.802132	0.065382
6930.225000	0.150124	0.183450	19.801815	0.065382
6933.222000	0.150124	0.183450	19.801815	0.065382
6936.267000	0.150124	0.183450	19.801815	0.065382
6939.220000	0.150124	0.183450	19.802132	0.065064
6942.226000	0.150124	0.183450	19.801815	0.065382
6945.235000	0.150124	0.183450	19.802132	0.065064
6948.220000	0.150124	0.183450	19.801815	0.065382
6951.221000	0.150124	0.183450	19.801815	0.065064
6954.230000	0.150124	0.183450	19.801815	0.065382
6957.223000	0.150124	0.183450	19.802132	0.065382
6960.233000	0.150124	0.183450	19.801815	0.065382
6963.224000	0.150124	0.183450	19.802132	0.065064
6966.225000	0.150124	0.183450	19.801815	0.065382
6969.226000	0.150124	0.183450	19.802132	0.065064
6972.235000	0.150124	0.183450	19.801815	0.065382
6975.240000	0.150124	0.183450	19.801815	0.065382
6978.230000	0.150124	0.183450	19.802132	0.065064
6981.241000	0.150124	0.183450	19.802132	0.065382
6984.236000	0.150124	0.183450	19.801815	0.065064
6987.234000	0.150124	0.183450	19.801815	0.065382
6990.231000	0.150124	0.183450	19.801815	0.065064
6993.231000	0.150124	0.183450	19.802132	0.065382
6996.231000	0.150759	0.183450	19.801815	0.065382
6999.239000	0.150124	0.183450	19.801815	0.065064
7002.232000	0.150124	0.183450	19.801815	0.065382
7005.282000	0.150124	0.183450	19.802132	0.065382
7008.294000	0.150124	0.183450	19.802132	0.065382
7011.318000	0.150124	0.183450	19.802132	0.065382
7014.240000	0.150124	0.183450	19.801815	0.065382
7017.240000	0.150124	0.183450	19.802132	0.065382
7020.240000	0.150124	0.183450	19.801815	0.065382
7023.246000	0.150124	0.183450	19.801815	0.065064
7026.276000	0.150124	0.183450	19.801815	0.065064
7029.243000	0.150124	0.183450	19.802132	0.065382
7032.288000	0.150124	0.183450	19.802132	0.065382
7035.235000	0.150124	0.183767	19.801815	0.065064
7038.235000	0.150124	0.183450	19.802132	0.065382
7041.321000	0.150124	0.183450	19.801815	0.065382
7044.281000	0.150759	0.183450	19.802132	0.065064
7047.251000	0.150124	0.183450	19.801815	0.065382
7050.305000	0.150124	0.183450	19.801815	0.065064
7053.251000	0.150124	0.183450	19.801815	0.065064
7056.251999	0.150124	0.183450	19.802132	0.065064
7059.253000	0.150124	0.183450	19.801815	0.065382
7062.292000	0.150124	0.183450	19.801815	0.065382
7065.238000	0.150124	0.183450	19.801815	0.065064
7068.252000	0.150124	0.183450	19.801180	0.065064
7071.240000	0.150124	0.183450	19.802132	0.065382
7074.254000	0.150124	0.183450	19.801815	0.065382
7077.306000	0.150124	0.183450	19.801815	0.065382
7080.361000	0.150124	0.183450	19.801815	0.065382
7083.329000	0.150124	0.183450	19.801815	0.065382
7086.322000	0.150124	0.183450	19.802132	0.065064
7089.255000	0.150124	0.183450	19.802132	0.065382
7092.339000	0.150124	0.183450	19.802132	0.065064
7095.253000	0.150124	0.183450	19.801815	0.065382
7098.262000	0.150124	0.183450	19.801815	0.065064
7101.263000	0.150124	0.183450	19.802132	0.065064
7104.254000	0.150759	0.183450	19.802132	0.065064
7107.246000	0.150124	0.183450	19.801815	0.065382
7110.258999	0.150124	0.183450	19.802132	0.065382
7113.278000	0.150124	0.183450	19.802132	0.065064
7116.263000	0.150124	0.183450	19.801815	0.065064
7119.260000	0.150124	0.183450	19.801815	0.065064
7122.256000	0.150124	0.183450	19.802132	0.065064
7125.248000	0.150124	0.183450	19.802132	0.065064
7128.265000	0.150124	0.183450	19.802132	0.065382
7131.261000	0.150124	0.183450	19.802132	0.065382
7134.261000	0.150124	0.183450	19.802132	0.065064
7137.265999	0.150124	0.183450	19.802132	0.065064
7140.265999	0.150124	0.183450	19.802132	0.065064
7143.250000	0.150124	0.183450	19.802132	0.065064
7146.259000	0.150124	0.183450	19.802132	0.065064
7149.342000	0.150124	0.183450	19.802132	0.065064
7152.281000	0.150124	0.183450	19.801815	0.065064
7155.264000	0.150124	0.183450	19.802132	0.065064
7158.335000	0.150124	0.183450	19.801815	0.065064
7161.251999	0.150124	0.183450	19.801815	0.065064
7164.268000	0.150124	0.183450	19.801815	0.065382
7167.331000	0.150124	0.183450	19.801815	0.065382
7170.253000	0.150124	0.183450	19.801815	0.065382
7173.272000	0.150124	0.183450	19.801815	0.065064
7176.290000	0.150124	0.183450	19.802132	0.065064
7179.269001	0.150124	0.183450	19.801815	0.065382
7182.269001	0.150124	0.183450	19.802132	0.065064
7185.303999	0.150124	0.183450	19.801815	0.065064
7188.271000	0.150124	0.183450	19.801815	0.065064
7191.263000	0.150124	0.183450	19.801815	0.065382
7194.271000	0.150124	0.183450	19.801815	0.065382
7197.325000	0.150124	0.183450	19.801180	0.065064
7200.268000	0.150124	0.183450	19.801815	0.065064
7203.272000	0.150124	0.183450	19.801180	0.065064
7206.264000	0.150124	0.183450	19.801815	0.065064
7209.268000	0.150124	0.183450	19.801815	0.065382
7212.276000	0.150124	0.183450	19.801180	0.065064
7215.268000	0.150124	0.183450	19.801815	0.065382
7218.257000	0.150124	0.183450	19.801815	0.065064
7221.315000	0.150124	0.183450	19.801180	0.065064
7224.265000	0.150124	0.183450	19.801180	0.065382
7227.274000	0.150124	0.183450	19.801815	0.065382
7230.266000	0.150124	0.183450	19.801815	0.065064
7233.258000	0.150124	0.183450	19.801180	0.065382
7236.258999	0.150124	0.183450	19.801815	0.065382
7239.301000	0.150124	0.183450	19.801815	0.065382
7242.276999	0.150124	0.183450	19.801180	0.065382
7245.270000	0.150124	0.183450	19.801180	0.065064
7248.262000	0.150124	0.183450	19.801180	0.065064
7251.290000	0.150124	0.183450	19.801180	0.065064
7254.272000	0.150124	0.183450	19.801180	0.065064
7257.265000	0.150124	0.183450	19.801815	0.065064
7260.294000	0.150124	0.183450	19.801815	0.065064
7263.276000	0.150124	0.183450	19.801815	0.065064
7266.348000	0.150124	0.183450	19.801815	0.065382
7269.280000	0.150124	0.183450	19.801815	0.065064
