LabVIEW Measurement	
Writer_Version	2
Reader_Version	2
Separator	Tab
Decimal_Separator	.
Multi_Headings	No
X_Columns	One
Time_Pref	Absolute
Operator	Mark
Date	2019/07/17
Time	13:05:18.3999996185302734375
***End_of_Header***	
	
Channels	4				
Samples	1	1	1	1	
Date	2019/07/17	2019/07/17	2019/07/17	2019/07/17	
Time	13:05:18.3999996185302734375	13:05:18.5189995765686035156	13:05:18.4939999580383300782	13:05:18.4279999732971191407	
X_Dimension	Time	Time	Time	Time	
X0	0.0000000000000000E+0	0.0000000000000000E+0	0.0000000000000000E+0	0.0000000000000000E+0	
Delta_X	1.000000	1.000000	1.000000	1.000000	
***End_of_Header***					
X_Value	FieldPoint\FP @ COM1\cFP-AI-110 @3\Channel 0 (Scaled)	FieldPoint\FP @ COM1\cFP-AI-110 @3\Channel 1 (Scaled)	FieldPoint\FP @ COM1\cFP-AI-110 @3\Channel 2 (Scaled)	FieldPoint\FP @ COM1\cFP-AI-110 @3\Channel 3 (Scaled)	Comment
0.000000	86.091709	0.000191	77.918720	0.000191
3.014000	92.915249	0.000191	82.044792	0.000191
6.025001	101.722908	0.000191	84.901524	0.000191
9.080000	111.720753	0.000191	92.121792	0.000191
12.002000	120.210838	0.000191	96.009922	0.000191
15.010001	135.286522	0.000191	99.977207	0.000191
18.011000	132.668209	0.000191	103.627396	0.000191
21.027000	137.428951	0.000191	108.546925	0.000191
24.114000	146.792126	0.000191	108.784866	0.000191
27.118000	155.044270	0.000191	113.704395	0.000191
30.019000	152.346325	0.000191	123.702240	0.000191
33.010000	156.313610	0.000191	126.161766	0.000191
36.003001	161.629868	0.000191	128.780079	0.000191
39.027000	164.248180	0.000191	124.733639	0.000191
42.052001	163.851452	0.000191	129.573536	0.000191
45.117001	168.057156	0.000191	135.762882	0.000191
47.999001	165.438366	0.000191	142.031384	0.000191
51.011000	165.359211	0.000191	145.919037	0.000191
54.020000	165.359211	0.000191	150.521469	0.000191
57.094000	162.978840	0.000191	149.886322	0.000191
60.007000	162.899208	0.000191	155.202579	0.000191
63.019000	167.898369	0.000191	147.347641	0.000191
66.024001	171.389294	0.000191	148.299408	0.000191
69.011000	175.991726	0.000191	147.347641	0.000191
72.011000	179.721069	0.000191	152.425480	0.000191
75.108001	187.576485	0.000191	155.202579	0.000191
78.017000	191.781712	0.000191	156.075668	0.000191
81.113000	193.924141	0.000191	158.297253	0.000191
84.017000	191.464138	0.000191	157.979679	0.000191
87.037000	191.147041	0.000191	161.550713	0.000191
90.021000	190.670681	0.000191	163.613510	0.000191
93.013000	188.131523	0.000191	169.644070	0.000191
96.033000	184.957695	0.000191	171.389294	0.000191
99.067000	188.528252	0.000191	167.104912	0.000191
102.068000	184.878540	0.000191	168.850613	0.000191
105.084001	189.877224	0.000191	172.976685	0.000191
108.013000	194.479656	0.000191	176.705551	0.000191
111.034000	198.288155	0.000191	181.070042	0.000191
114.121001	197.732639	0.000191	176.943970	0.000191
117.088001	198.288155	0.000191	173.849297	0.000191
120.024001	197.415543	0.000191	178.451252	0.000191
123.093000	199.795914	0.000191	179.086399	0.000191
126.111001	198.605728	0.000191	178.927612	0.000191
129.027000	203.128052	0.000191	180.196953	0.000191
132.014000	203.683567	0.000191	179.721069	0.000191
135.007000	205.350113	0.000191	183.529568	0.000191
138.044001	208.523941	0.000191	181.070042	0.000191
141.086000	209.714127	0.000191	183.926296	0.000191
144.016000	212.094498	0.000191	185.116482	0.000191
147.008000	212.650013	0.000191	186.227512	0.000191
150.012001	210.745525	0.000191	186.386299	0.000191
153.112000	210.269642	0.000191	187.417698	0.000191
156.037000	209.634495	0.000191	186.862183	0.000191
159.105000	205.508900	0.000191	186.068726	0.000191
162.017000	205.746841	0.000191	186.386299	0.000191
165.025001	203.763199	0.000191	186.544609	0.000191
168.042000	204.635811	0.000191	189.877224	0.000191
171.105000	204.080296	0.000191	190.115166	0.000191
174.017001	204.080296	0.000191	189.956856	0.000191
177.017001	204.556656	0.000191	189.242554	0.000191
180.017000	210.348797	0.000191	187.893581	0.000191
183.017000	212.887955	0.000191	183.926296	0.000191
186.047000	214.078140	0.000191	182.101440	0.000191
189.092000	214.236927	0.000191	184.957695	0.000191
192.035000	214.078140	0.000191	187.258911	0.000191
195.080000	211.221886	0.000191	185.909939	0.000191
198.065001	213.760567	0.000191	185.989571	0.000191
201.015000	212.887955	0.000191	189.004612	0.000191
204.025001	216.220570	0.000191	190.988255	0.000191
207.045000	215.268326	0.000191	189.163399	0.000191
210.022000	215.030384	0.000191	189.956856	0.000191
213.038000	217.172813	0.000191	191.781712	0.000191
216.022000	216.617298	0.000191	192.733955	0.000191
219.093000	214.633656	0.000191	193.051052	0.000191
222.023000	212.094498	0.000191	195.114326	0.000191
225.023000	214.712811	0.000191	195.986938	0.000191
228.028001	215.823841	0.000191	195.034695	0.000191
231.089001	217.251968	0.000191	195.511055	0.000191
234.019000	216.538143	0.000191	193.289471	0.000191
237.023000	217.331600	0.000191	193.527412	0.000191
240.020000	219.156456	0.000191	193.606567	0.000191
243.036001	218.600941	0.000191	192.733955	0.000191
246.023000	220.029068	0.000191	195.273113	0.000191
249.029001	215.189171	0.000191	195.907784	0.000191
252.024001	212.491226	0.000191	195.511055	0.000191
255.111001	202.573013	0.000191	197.018337	0.000191
258.033000	202.731323	0.000191	198.050213	0.000191
261.042000	205.270481	0.000191	200.668526	0.000191
264.025001	208.841038	0.000191	196.066570	0.000191
267.018001	212.094498	0.000191	194.082928	0.000191
270.030000	215.268326	0.000191	192.416382	0.000191
273.091001	214.316082	0.000191	192.733955	0.000191
276.051001	215.030384	0.000191	192.575169	0.000191
279.027000	216.299725	0.000191	191.940498	0.000191
282.042001	218.838882	0.000191	194.241238	0.000191
285.035000	219.315243	0.000191	195.034695	0.000191
288.103000	223.123741	0.000191	195.034695	0.000191
291.037000	222.885799	0.000191	194.400024	0.000191
294.094000	224.869442	0.000191	195.431423	0.000191
297.032001	226.773453	0.000191	196.939182	0.000191
300.094000	226.138783	0.000191	195.907784	0.000191
303.127000	208.523941	0.000191	198.209000	0.000191
306.064001	208.682728	0.000191	193.924141	0.000191
309.027000	209.793282	0.000191	189.639282	0.000191
312.044001	212.094498	0.000191	191.226196	0.000191
315.030000	207.174969	0.000191	190.432739	0.000191
318.041000	202.652168	0.000191	189.480495	0.000191
321.038000	201.620770	0.000191	191.543770	0.000191
324.034000	204.080296	0.000191	194.558811	0.000191
327.096000	205.032539	0.000191	194.955540	0.000191
330.138000	203.048897	0.000191	196.939182	0.000191
333.125001	201.937866	0.000191	197.812271	0.000191
336.046000	206.540298	0.000191	198.129368	0.000191
339.037000	209.634495	0.000191	191.226196	0.000191
342.124001	213.840199	0.000191	190.194798	0.000191
345.022000	213.125896	0.000191	187.417698	0.000191
348.071000	210.745525	0.000191	190.036011	0.000191
351.030000	211.301041	0.000191	190.194798	0.000191
354.060000	212.729168	0.000191	191.147041	0.000191
357.023000	213.046741	0.000191	193.209839	0.000191
360.051001	211.301041	0.000191	192.971897	0.000191
363.127000	210.110855	0.000191	182.974052	0.000191
366.052000	207.809639	0.000191	181.545925	0.000191
369.102000	207.492542	0.000191	183.211994	0.000191
372.035000	203.445625	0.000191	185.671997	0.000191
375.033000	205.032539	0.000191	185.196114	0.000191
378.125001	200.747681	0.000191	186.624241	0.000191
381.043001	197.415543	0.000191	187.893581	0.000191
384.036001	196.780396	0.000191	187.973213	0.000191
387.044001	196.066570	0.000191	190.591526	0.000191
390.044001	200.113010	0.000191	190.988255	0.000191
393.035000	199.557495	0.000191	194.241238	0.000191
396.040000	202.969742	0.000191	194.558811	0.000191
399.040000	203.524780	0.000191	196.780396	0.000191
402.127000	204.159927	0.000191	196.780396	0.000191
405.053000	208.523941	0.000191	196.542454	0.000191
408.053000	205.825996	0.000191	195.748997	0.000191
411.087001	205.825996	0.000191	195.511055	0.000191
414.038000	209.634495	0.000191	194.558811	0.000191
417.067000	210.745525	0.000191	194.479656	0.000191
420.058001	209.714127	0.000191	196.304512	0.000191
423.046000	210.825157	0.000191	199.002457	0.000191
426.050001	208.365154	0.000191	200.589371	0.000191
429.050001	207.492542	0.000191	200.430584	0.000191
432.146001	207.968426	0.000191	199.002457	0.000191
435.039001	208.761883	0.000191	201.541138	0.000191
438.041000	207.016182	0.000191	202.493382	0.000191
441.061000	206.302357	0.000191	203.445625	0.000191
444.052000	204.556656	0.000191	201.699924	0.000191
447.053000	202.652168	0.000191	204.080296	0.000191
450.061000	204.794598	0.000191	192.892742	0.000191
453.061000	204.001141	0.000191	190.908623	0.000191
456.040001	204.239082	0.000191	191.543770	0.000191
459.041000	199.637127	0.000191	195.669842	0.000191
462.061001	198.684883	0.000191	196.939182	0.000191
465.115001	196.621609	0.000191	195.511055	0.000191
468.060000	197.573853	0.000191	191.384983	0.000191
471.149000	192.496014	0.000191	194.162083	0.000191
474.041000	195.669842	0.000191	196.145725	0.000191
477.040000	197.256756	0.000191	195.669842	0.000191
480.029001	196.463299	0.000191	198.209000	0.000191
483.040001	194.082928	0.000191	199.319553	0.000191
486.148000	194.003296	0.000191	202.017498	0.000191
489.040001	194.003296	0.000191	202.334595	0.000191
492.041000	192.416382	0.000191	202.652168	0.000191
495.077001	190.750313	0.000191	205.270481	0.000191
498.041000	190.273952	0.000191	204.794598	0.000191
501.054000	191.384983	0.000191	205.588055	0.000191
504.137000	190.194798	0.000191	206.302357	0.000191
507.142001	191.543770	0.000191	205.032539	0.000191
510.058001	190.670681	0.000191	203.842354	0.000191
513.060000	196.066570	0.000191	204.794598	0.000191
516.043001	192.575169	0.000191	204.794598	0.000191
519.133000	190.670681	0.000191	203.207684	0.000191
522.051001	191.781712	0.000191	203.763199	0.000191
525.042000	192.971897	0.000191	203.763199	0.000191
528.042000	193.447781	0.000191	207.174969	0.000191
531.043001	192.892742	0.000191	205.825996	0.000191
534.108000	192.099285	0.000191	205.984783	0.000191
537.129000	194.082928	0.000191	204.715443	0.000191
540.039001	198.209000	0.000191	205.032539	0.000191
543.038001	196.145725	0.000191	207.492542	0.000191
546.042000	193.606567	0.000191	208.682728	0.000191
549.047000	186.624241	0.000191	205.667210	0.000191
552.042000	182.418537	0.000191	208.127213	0.000191
555.087000	184.481812	0.000191	209.634495	0.000191
558.134000	186.068726	0.000191	209.634495	0.000191
561.043001	185.751152	0.000191	209.079456	0.000191
564.047001	189.083767	0.000191	210.031700	0.000191
567.058001	190.591526	0.000191	202.969742	0.000191
570.050000	191.940498	0.000191	202.334595	0.000191
573.097000	188.131523	0.000191	203.604412	0.000191
576.084001	188.607883	0.000191	202.096653	0.000191
579.137000	194.796753	0.000191	202.652168	0.000191
582.042000	194.717598	0.000191	205.746841	0.000191
585.042000	193.051052	0.000191	206.540298	0.000191
588.043001	192.257595	0.000191	206.302357	0.000191
591.130001	191.464138	0.000191	208.206367	0.000191
594.075001	191.067410	0.000191	204.477024	0.000191
597.042000	193.447781	0.000191	200.827312	0.000191
600.108000	197.970581	0.000191	196.542454	0.000191
603.047000	198.129368	0.000191	197.097969	0.000191
606.059000	197.573853	0.000191	197.812271	0.000191
609.068000	195.431423	0.000191	195.907784	0.000191
612.042000	192.416382	0.000191	199.716282	0.000191
615.042000	194.400024	0.000191	200.747681	0.000191
618.043001	194.400024	0.000191	200.192642	0.000191
621.058000	196.066570	0.000191	200.192642	0.000191
624.059000	194.479656	0.000191	202.493382	0.000191
627.102000	196.224880	0.000191	200.827312	0.000191
630.045000	196.701241	0.000191	203.048897	0.000191
633.066000	196.145725	0.000191	204.556656	0.000191
636.054000	195.273113	0.000191	203.842354	0.000191
639.045001	195.034695	0.000191	204.715443	0.000191
642.116001	193.686199	0.000191	203.842354	0.000191
645.103000	194.955540	0.000191	201.065254	0.000191
648.045000	195.907784	0.000191	200.668526	0.000191
651.133000	197.256756	0.000191	200.033855	0.000191
654.053000	200.033855	0.000191	201.779556	0.000191
657.046000	194.400024	0.000191	202.017498	0.000191
660.053000	193.130684	0.000191	203.842354	0.000191
663.045000	194.082928	0.000191	204.239082	0.000191
666.045001	194.717598	0.000191	203.604412	0.000191
669.061001	196.304512	0.000191	202.652168	0.000191
672.153001	195.748997	0.000191	204.715443	0.000191
675.045000	197.573853	0.000191	204.794598	0.000191
678.141000	198.050213	0.000191	205.191326	0.000191
681.055001	199.557495	0.000191	204.159927	0.000191
684.056000	197.494698	0.000191	205.112171	0.000191
687.047000	197.177124	0.000191	205.032539	0.000191
690.040001	197.812271	0.000191	206.143570	0.000191
693.048000	197.494698	0.000191	205.270481	0.000191
696.056000	196.939182	0.000191	205.270481	0.000191
699.048000	194.003296	0.000191	200.986099	0.000191
702.115000	190.750313	0.000191	200.668526	0.000191
705.048000	191.147041	0.000191	201.303196	0.000191
708.064000	193.051052	0.000191	200.827312	0.000191
711.128001	195.431423	0.000191	201.779556	0.000191
714.058001	196.463299	0.000191	200.589371	0.000191
717.112000	199.319553	0.000191	202.017498	0.000191
720.058001	198.605728	0.000191	202.652168	0.000191
723.144001	198.922825	0.000191	203.207684	0.000191
726.129000	201.699924	0.000191	198.922825	0.000191
729.067000	201.224041	0.000191	200.589371	0.000191
732.066000	201.303196	0.000191	204.635811	0.000191
735.050000	201.303196	0.000191	205.984783	0.000191
738.083001	188.369942	0.000191	210.031700	0.000191
741.129000	175.436211	0.000191	208.365154	0.000191
744.150001	165.121269	0.000191	205.191326	0.000191
747.059000	163.613510	0.000191	201.541138	0.000191
750.050001	161.550713	0.000191	203.286839	0.000191
753.051001	162.264538	0.000191	202.810955	0.000191
756.051001	166.866970	0.000191	202.731323	0.000191
759.117001	175.912094	0.000191	202.096653	0.000191
762.050000	178.847980	0.000191	201.303196	0.000191
765.051001	181.149197	0.000191	203.524780	0.000191
768.071001	183.847141	0.000191	202.573013	0.000191
771.071001	185.037327	0.000191	202.176285	0.000191
774.071001	180.117798	0.000191	202.096653	0.000191
777.051000	175.515366	0.000191	202.652168	0.000191
780.050000	176.150513	0.000191	204.318714	0.000191
783.076000	175.118637	0.000191	205.508900	0.000191
786.079000	175.039482	0.000191	208.365154	0.000191
789.105000	174.880695	0.000191	207.650852	0.000191
792.051001	178.054523	0.000191	208.047581	0.000191
795.150001	178.372097	0.000191	204.794598	0.000191
798.050001	177.895737	0.000191	204.715443	0.000191
801.137001	178.372097	0.000191	206.778240	0.000191
804.127000	179.721069	0.000191	205.032539	0.000191
807.059000	181.228352	0.000191	204.239082	0.000191
810.056000	180.831623	0.000191	204.080296	0.000191
813.086000	176.864338	0.000191	201.144409	0.000191
816.097000	178.689671	0.000191	194.796753	0.000191
819.152000	182.101440	0.000191	187.258911	0.000191
822.160000	183.053684	0.000191	187.496853	0.000191
825.052001	179.959011	0.000191	186.862183	0.000191
828.048000	179.086399	0.000191	189.639282	0.000191
831.136001	177.975368	0.000191	189.639282	0.000191
834.052000	177.181911	0.000191	183.529568	0.000191
837.139000	171.548080	0.000191	177.181911	0.000191
840.069001	169.405651	0.000191	179.165554	0.000191
843.053000	170.357895	0.000191	180.990410	0.000191
846.062001	171.627712	0.000191	180.514526	0.000191
849.054001	171.627712	0.000191	179.562283	0.000191
852.121001	173.055840	0.000191	181.545925	0.000191
855.121000	172.659111	0.000191	174.642754	0.000191
858.061000	172.500324	0.000191	171.944809	0.000191
861.135000	173.452568	0.000191	172.817898	0.000191
864.066000	174.087238	0.000191	173.134995	0.000191
867.062001	174.801540	0.000191	174.325180	0.000191
870.104000	173.928452	0.000191	175.515366	0.000191
873.054001	173.531723	0.000191	178.054523	0.000191
876.133000	172.024441	0.000191	179.483128	0.000191
879.134001	169.088554	0.000191	181.863499	0.000191
882.136000	170.040798	0.000191	182.418537	0.000191
885.137000	170.040798	0.000191	181.070042	0.000191
888.063000	159.805012	0.000191	182.418537	0.000191
891.054000	164.406967	0.000191	183.370781	0.000191
894.071000	168.295097	0.000191	182.101440	0.000191
897.077001	171.468925	0.000191	184.164238	0.000191
900.064001	171.389294	0.000191	184.481812	0.000191
903.104001	172.182751	0.000191	186.862183	0.000191
906.055001	175.039482	0.000191	187.655640	0.000191
909.059000	174.801540	0.000191	191.147041	0.000191
912.055000	173.690510	0.000191	191.622925	0.000191
915.083000	172.579956	0.000191	192.416382	0.000191
918.057000	169.008923	0.000191	191.384983	0.000191
921.056000	168.295097	0.000191	190.591526	0.000191
924.073001	170.675468	0.000191	191.543770	0.000191
927.119000	168.295097	0.000191	191.543770	0.000191
930.056001	168.295097	0.000191	194.003296	0.000191
933.131000	165.993881	0.000191	193.606567	0.000191
936.068000	165.438366	0.000191	196.224880	0.000191
939.060000	168.612194	0.000191	193.527412	0.000191
942.077001	171.468925	0.000191	189.956856	0.000191
945.090000	169.167709	0.000191	191.622925	0.000191
948.062001	168.057156	0.000191	190.432739	0.000191
951.082000	169.485283	0.000191	189.480495	0.000191
954.066001	169.167709	0.000191	190.432739	0.000191
957.133000	168.295097	0.000191	189.560127	0.000191
960.134000	168.533039	0.000191	188.369942	0.000191
963.133000	169.961166	0.000191	187.973213	0.000191
966.063000	168.850613	0.000191	188.687038	0.000191
969.063000	169.644070	0.000191	188.528252	0.000191
972.059000	171.389294	0.000191	189.401340	0.000191
975.159000	172.024441	0.000191	190.591526	0.000191
978.063000	172.341537	0.000191	189.163399	0.000191
981.070000	170.040798	0.000191	189.639282	0.000191
984.062001	168.453884	0.000191	190.432739	0.000191
987.166000	169.802380	0.000191	191.067410	0.000191
990.067000	170.278740	0.000191	192.099285	0.000191
993.059000	169.644070	0.000191	191.940498	0.000191
996.063000	167.977524	0.000191	191.781712	0.000191
999.067000	167.580795	0.000191	191.940498	0.000191
1002.137000	166.311455	0.000191	190.908623	0.000191
1005.091001	166.866970	0.000191	189.560127	0.000191
1008.075001	167.580795	0.000191	192.178440	0.000191
1011.083000	169.882011	0.000191	192.733955	0.000191
1014.108000	170.834255	0.000191	189.718437	0.000191
1017.166000	170.992565	0.000191	189.480495	0.000191
1020.149000	169.485283	0.000191	188.131523	0.000191
1023.156000	169.802380	0.000191	189.401340	0.000191
1026.064001	169.961166	0.000191	190.273952	0.000191
1029.088001	171.627712	0.000191	188.607883	0.000191
1032.134000	171.151352	0.000191	190.908623	0.000191
1035.127001	168.533039	0.000191	191.622925	0.000191
1038.060000	168.136311	0.000191	191.940498	0.000191
1041.115000	163.057995	0.000191	193.447781	0.000191
1044.166000	165.517998	0.000191	190.194798	0.000191
1047.121001	165.993881	0.000191	186.703396	0.000191
1050.127000	167.580795	0.000191	182.736111	0.000191
1053.056000	166.073513	0.000191	180.514526	0.000191
1056.138000	167.263699	0.000191	181.387138	0.000191
1059.078001	163.137627	0.000191	183.211994	0.000191
1062.155000	157.821369	0.000191	184.481812	0.000191
1065.119000	151.473236	0.000191	184.640598	0.000191
1068.055000	150.441837	0.000191	184.719753	0.000191
1071.131001	150.838566	0.000191	185.196114	0.000191
1074.080000	152.266693	0.000191	186.703396	0.000191
1077.163000	150.997353	0.000191	187.655640	0.000191
1080.152000	154.012394	0.000191	191.147041	0.000191
1083.058001	156.075668	0.000191	189.639282	0.000191
1086.095001	157.424641	0.000191	191.543770	0.000191
1089.175000	158.376408	0.000191	192.257595	0.000191
1092.138000	148.696136	0.000191	190.273952	0.000191
1095.068000	149.489594	0.000191	190.036011	0.000191
1098.084001	145.919037	0.000191	184.560966	0.000191
1101.070000	147.744370	0.000191	183.529568	0.000191
1104.176001	150.759411	0.000191	185.354424	0.000191
1107.078001	151.949596	0.000191	182.894897	0.000191
1110.160001	150.997353	0.000191	180.593681	0.000191
1113.087001	150.045109	0.000191	181.942654	0.000191
1116.081000	149.886322	0.000191	182.894897	0.000191
1119.066000	147.188854	0.000191	180.514526	0.000191
1122.128000	146.315765	0.000191	183.053684	0.000191
1125.154001	149.013710	0.000191	181.149197	0.000191
1128.076001	149.807167	0.000191	180.434895	0.000191
1131.096000	150.441837	0.000191	181.466770	0.000191
1134.084001	150.521469	0.000191	178.530884	0.000191
1137.184001	149.489594	0.000191	181.545925	0.000191
1140.075001	149.728012	0.000191	182.577324	0.000191
1143.067000	153.218937	0.000191	181.228352	0.000191
1146.141000	150.283051	0.000191	184.560966	0.000191
1149.160000	150.362682	0.000191	185.116482	0.000191
1152.184000	151.869965	0.000191	183.926296	0.000191
1155.078000	150.918198	0.000191	189.083767	0.000191
1158.176001	150.203896	0.000191	186.703396	0.000191
1161.138000	151.552868	0.000191	185.909939	0.000191
1164.113001	152.346325	0.000191	187.417698	0.000191
1167.157000	152.028751	0.000191	186.544609	0.000191
1170.086000	154.964638	0.000191	188.449097	0.000191
1173.081000	154.726696	0.000191	186.147881	0.000191
1176.096000	156.710339	0.000191	184.719753	0.000191
1179.102001	155.996037	0.000191	184.719753	0.000191
1182.091001	156.789494	0.000191	186.465454	0.000191
1185.103000	155.758095	0.000191	186.147881	0.000191
1188.187001	157.503796	0.000191	186.465454	0.000191
1191.088001	157.821369	0.000191	185.671997	0.000191
1194.104000	157.979679	0.000191	185.116482	0.000191
1197.096000	158.218098	0.000191	188.211155	0.000191
1200.155000	157.265854	0.000191	188.369942	0.000191
1203.089000	158.297253	0.000191	186.068726	0.000191
1206.089000	158.773136	0.000191	188.052368	0.000191
1209.100000	154.329967	0.000191	187.734795	0.000191
1212.126000	152.028751	0.000191	188.449097	0.000191
1215.093000	164.803696	0.000191	188.528252	0.000191
1218.105000	165.121269	0.000191	190.036011	0.000191
1221.097000	166.073513	0.000191	190.115166	0.000191
1224.089000	169.644070	0.000191	189.004612	0.000191
1227.088001	174.642754	0.000191	190.036011	0.000191
1230.163000	177.657795	0.000191	190.194798	0.000191
1233.097000	179.721069	0.000191	192.019653	0.000191
1236.177000	180.355740	0.000191	193.051052	0.000191
1239.168001	175.357056	0.000191	193.447781	0.000191
1242.194001	175.594997	0.000191	192.575169	0.000191
1245.099000	175.357056	0.000191	194.637966	0.000191
1248.145000	175.991726	0.000191	194.241238	0.000191
1251.186000	176.070881	0.000191	192.654324	0.000191
1254.095001	174.166870	0.000191	195.986938	0.000191
1257.182000	174.960327	0.000191	194.162083	0.000191
1260.111000	172.817898	0.000191	194.796753	0.000191
1263.112000	172.579956	0.000191	186.465454	0.000191
1266.099001	174.166870	0.000191	188.607883	0.000191
1269.099001	174.960327	0.000191	189.242554	0.000191
1272.099000	177.657795	0.000191	189.242554	0.000191
1275.200000	177.102280	0.000191	189.242554	0.000191
1278.179000	178.530884	0.000191	189.480495	0.000191
1281.109000	180.038166	0.000191	188.766670	0.000191
1284.120000	182.656956	0.000191	186.147881	0.000191
1287.091001	181.228352	0.000191	186.624241	0.000191
1290.195001	178.451252	0.000191	189.004612	0.000191
1293.107000	180.593681	0.000191	186.386299	0.000191
1296.100000	179.721069	0.000191	186.227512	0.000191
1299.084001	178.054523	0.000191	181.149197	0.000191
1302.191000	175.912094	0.000191	179.324341	0.000191
1305.108000	174.325180	0.000191	177.578640	0.000191
1308.125000	174.960327	0.000191	175.991726	0.000191
1311.170000	176.467609	0.000191	177.181911	0.000191
1314.184001	174.960327	0.000191	179.165554	0.000191
1317.109001	173.849297	0.000191	180.831623	0.000191
1320.184001	173.690510	0.000191	180.673313	0.000191
1323.126000	168.533039	0.000191	182.894897	0.000191
1326.088000	170.516682	0.000191	185.671997	0.000191
1329.101000	169.882011	0.000191	185.671997	0.000191
1332.114001	173.531723	0.000191	186.147881	0.000191
1335.102001	173.055840	0.000191	188.687038	0.000191
1338.102001	171.310139	0.000191	190.591526	0.000191
1341.185000	170.595837	0.000191	192.416382	0.000191
1344.098001	172.659111	0.000191	192.971897	0.000191
1347.090001	171.548080	0.000191	191.781712	0.000191
1350.093000	168.612194	0.000191	193.527412	0.000191
1353.095000	170.675468	0.000191	193.606567	0.000191
1356.103000	172.500324	0.000191	194.796753	0.000191
1359.157001	170.278740	0.000191	194.796753	0.000191
1362.097000	173.134995	0.000191	196.304512	0.000191
1365.175001	174.404812	0.000191	195.748997	0.000191
1368.125001	174.880695	0.000191	196.701241	0.000191
1371.134001	176.467609	0.000191	196.701241	0.000191
1374.189000	177.499008	0.000191	199.081612	0.000191
1377.205000	180.593681	0.000191	200.668526	0.000191
1380.097000	175.357056	0.000191	199.637127	0.000191
1383.122000	170.992565	0.000191	197.256756	0.000191
1386.094000	166.152668	0.000191	189.083767	0.000191
1389.168001	169.088554	0.000191	185.671997	0.000191
1392.102001	169.882011	0.000191	188.211155	0.000191
1395.097001	169.564438	0.000191	188.924980	0.000191
1398.175001	169.961166	0.000191	189.877224	0.000191
1401.126000	170.119953	0.000191	192.416382	0.000191
1404.168000	171.310139	0.000191	189.560127	0.000191
1407.169001	171.072197	0.000191	191.384983	0.000191
1410.161000	174.008083	0.000191	194.479656	0.000191
1413.131001	177.895737	0.000191	196.463299	0.000191
1416.138000	175.436211	0.000191	198.209000	0.000191
1419.091001	175.832939	0.000191	197.653484	0.000191
1422.187001	180.117798	0.000191	199.478340	0.000191
1425.095001	173.134995	0.000191	197.415543	0.000191
1428.136001	173.293781	0.000191	194.400024	0.000191
1431.099000	174.404812	0.000191	191.702557	0.000191
1434.162000	172.897053	0.000191	190.908623	0.000191
1437.099000	172.421169	0.000191	192.654324	0.000191
1440.107000	173.611355	0.000191	191.622925	0.000191
1443.103000	169.564438	0.000191	194.082928	0.000191
1446.095001	169.485283	0.000191	196.701241	0.000191
1449.191001	169.644070	0.000191	199.002457	0.000191
1452.165000	174.960327	0.000191	201.461983	0.000191
1455.178000	176.308823	0.000191	196.463299	0.000191
1458.103000	172.659111	0.000191	194.637966	0.000191
1461.100000	171.072197	0.000191	196.780396	0.000191
1464.207000	170.913410	0.000191	199.319553	0.000191
1467.107000	173.293781	0.000191	195.590210	0.000191
1470.092000	173.452568	0.000191	196.304512	0.000191
1473.100000	175.118637	0.000191	195.986938	0.000191
1476.125001	175.515366	0.000191	195.669842	0.000191
1479.100000	175.357056	0.000191	196.542454	0.000191
1482.180000	171.548080	0.000191	196.304512	0.000191
1485.145000	171.389294	0.000191	195.907784	0.000191
1488.100000	170.595837	0.000191	193.527412	0.000191
1491.105000	172.182751	0.000191	194.400024	0.000191
1494.151000	174.087238	0.000191	196.145725	0.000191
1497.130001	175.118637	0.000191	197.415543	0.000191
1500.109001	178.530884	0.000191	195.034695	0.000191
1503.117001	179.641438	0.000191	197.732639	0.000191
1506.171000	175.198269	0.000191	191.067410	0.000191
1509.102000	173.373413	0.000191	188.687038	0.000191
1512.109000	157.821369	0.000191	186.941338	0.000191
1515.148000	158.852768	0.000191	187.893581	0.000191
1518.106000	160.042953	0.000191	189.004612	0.000191
1521.172000	161.391926	0.000191	189.956856	0.000191
1524.101000	160.915565	0.000191	191.067410	0.000191
1527.118001	162.740898	0.000191	191.464138	0.000191
1530.151000	162.105751	0.000191	191.226196	0.000191
1533.099000	163.613510	0.000191	192.019653	0.000191
1536.095000	162.899208	0.000191	193.924141	0.000191
1539.136001	161.867809	0.000191	195.907784	0.000191
1542.170000	163.295937	0.000191	195.986938	0.000191
1545.182001	164.644909	0.000191	196.145725	0.000191
1548.108000	163.851452	0.000191	196.542454	0.000191
1551.103000	161.391926	0.000191	192.892742	0.000191
1554.108001	157.345009	0.000191	192.257595	0.000191
1557.173000	153.933239	0.000191	192.019653	0.000191
1560.133000	154.964638	0.000191	192.416382	0.000191
1563.112000	155.758095	0.000191	195.431423	0.000191
1566.203000	157.265854	0.000191	195.114326	0.000191
1569.116000	158.931923	0.000191	196.304512	0.000191
1572.148000	160.915565	0.000191	194.162083	0.000191
1575.112000	164.486122	0.000191	194.558811	0.000191
1578.125001	164.962482	0.000191	186.544609	0.000191
1581.204000	159.884167	0.000191	182.974052	0.000191
1584.104000	160.042953	0.000191	180.434895	0.000191
1587.125000	159.249496	0.000191	180.673313	0.000191
1590.113000	160.280895	0.000191	182.418537	0.000191
1593.212000	159.249496	0.000191	182.577324	0.000191
1596.186000	161.867809	0.000191	185.513210	0.000191
1599.185000	164.089394	0.000191	187.020969	0.000191
1602.105000	160.439682	0.000191	183.847141	0.000191
1605.113001	155.837727	0.000191	177.975368	0.000191
1608.114000	158.535194	0.000191	175.912094	0.000191
1611.101000	158.456039	0.000191	177.023125	0.000191
1614.167000	152.584267	0.000191	177.499008	0.000191
1617.105000	153.060150	0.000191	180.355740	0.000191
1620.193000	153.933239	0.000191	181.545925	0.000191
1623.190001	154.012394	0.000191	185.671997	0.000191
1626.115000	153.377724	0.000191	186.624241	0.000191
1629.173001	153.298569	0.000191	186.465454	0.000191
1632.107000	152.584267	0.000191	186.465454	0.000191
1635.124000	157.424641	0.000191	188.131523	0.000191
1638.170000	158.852768	0.000191	187.576485	0.000191
1641.186000	157.582951	0.000191	185.592842	0.000191
1644.216001	160.598469	0.000191	180.673313	0.000191
1647.211000	160.995197	0.000191	180.911255	0.000191
1650.204000	161.629868	0.000191	183.450413	0.000191
1653.116001	160.757256	0.000191	183.370781	0.000191
1656.111001	161.788654	0.000191	177.578640	0.000191
1659.117001	163.931084	0.000191	175.436211	0.000191
1662.195001	162.264538	0.000191	176.308823	0.000191
1665.142000	161.788654	0.000191	176.467609	0.000191
1668.216001	163.454723	0.000191	177.419853	0.000191
1671.133000	163.534355	0.000191	176.705551	0.000191
1674.109001	162.820053	0.000191	177.975368	0.000191
1677.145000	166.628551	0.000191	179.562283	0.000191
1680.108000	163.931084	0.000191	179.324341	0.000191
1683.101001	163.375568	0.000191	180.038166	0.000191
1686.137000	159.328651	0.000191	179.879856	0.000191
1689.108000	155.996037	0.000191	180.038166	0.000191
1692.117001	156.392765	0.000191	182.577324	0.000191
1695.108000	158.535194	0.000191	181.466770	0.000191
1698.187001	157.582951	0.000191	179.879856	0.000191
1701.179000	157.900524	0.000191	179.879856	0.000191
1704.154001	155.440998	0.000191	178.530884	0.000191
1707.108000	153.933239	0.000191	180.911255	0.000191
1710.108001	151.314926	0.000191	179.324341	0.000191
1713.160000	152.822208	0.000191	178.610039	0.000191
1716.159000	149.807167	0.000191	178.530884	0.000191
1719.118000	149.569225	0.000191	179.483128	0.000191
1722.109000	148.696136	0.000191	179.403496	0.000191
1725.130000	149.728012	0.000191	182.339382	0.000191
1728.125001	151.711655	0.000191	182.656956	0.000191
1731.109001	146.236610	0.000191	184.481812	0.000191
1734.110001	144.173336	0.000191	185.671997	0.000191
1737.127001	137.270164	0.000191	184.560966	0.000191
1740.110001	136.476707	0.000191	185.037327	0.000191
1743.119000	135.683250	0.000191	185.751152	0.000191
1746.111000	136.318398	0.000191	186.465454	0.000191
1749.209001	137.984467	0.000191	188.766670	0.000191
1752.131001	136.159611	0.000191	189.560127	0.000191
1755.110001	136.794281	0.000191	189.718437	0.000191
1758.218000	142.269325	0.000191	190.988255	0.000191
1761.182001	142.189693	0.000191	178.530884	0.000191
1764.139000	139.968109	0.000191	178.451252	0.000191
1767.115000	142.507267	0.000191	178.847980	0.000191
1770.110001	142.189693	0.000191	179.006767	0.000191
1773.119000	142.189693	0.000191	180.117798	0.000191
1776.119000	141.475868	0.000191	181.228352	0.000191
1779.115000	139.015865	0.000191	182.180595	0.000191
1782.141000	138.857079	0.000191	183.529568	0.000191
1785.112000	136.318398	0.000191	182.418537	0.000191
1788.191001	135.366154	0.000191	182.101440	0.000191
1791.117000	129.970264	0.000191	184.164238	0.000191
1794.122000	125.606251	0.000191	185.196114	0.000191
1797.220000	128.780079	0.000191	187.417698	0.000191
1800.124001	132.350636	0.000191	187.734795	0.000191
1803.112000	136.476707	0.000191	187.576485	0.000191
1806.174000	140.999508	0.000191	185.909939	0.000191
1809.212000	140.285683	0.000191	187.100124	0.000191
1812.192000	137.508583	0.000191	188.131523	0.000191
1815.112000	136.397552	0.000191	188.449097	0.000191
1818.139000	137.825680	0.000191	187.100124	0.000191
1821.200000	142.348480	0.000191	184.878540	0.000191
1824.223001	143.697453	0.000191	185.989571	0.000191
1827.193000	141.634655	0.000191	188.131523	0.000191
1830.210000	139.888954	0.000191	187.496853	0.000191
1833.139001	134.413910	0.000191	189.560127	0.000191
1836.107000	136.238766	0.000191	185.592842	0.000191
1839.115001	139.015865	0.000191	185.671997	0.000191
1842.131000	139.253807	0.000191	184.005451	0.000191
1845.152000	139.253807	0.000191	182.418537	0.000191
1848.202001	140.682411	0.000191	184.085083	0.000191
1851.215000	138.381195	0.000191	183.608723	0.000191
1854.110001	142.824841	0.000191	183.211994	0.000191
1857.135001	144.173336	0.000191	182.339382	0.000191
1860.120000	145.046425	0.000191	179.721069	0.000191
1863.199000	145.205212	0.000191	180.355740	0.000191
1866.124001	145.998669	0.000191	181.545925	0.000191
1869.136001	148.537827	0.000191	181.149197	0.000191
1872.191000	149.489594	0.000191	184.164238	0.000191
1875.149000	150.838566	0.000191	182.656956	0.000191
1878.116000	148.934555	0.000191	183.370781	0.000191
1881.195001	145.760250	0.000191	184.164238	0.000191
1884.116001	146.236610	0.000191	185.592842	0.000191
1887.126000	144.252968	0.000191	186.147881	0.000191
1890.117001	144.966793	0.000191	186.624241	0.000191
1893.163001	145.284367	0.000191	189.401340	0.000191
1896.122000	148.537827	0.000191	189.956856	0.000191
1899.122000	142.903996	0.000191	190.750313	0.000191
1902.126000	141.237926	0.000191	189.163399	0.000191
1905.133000	140.206051	0.000191	189.083767	0.000191
1908.146000	138.143253	0.000191	186.544609	0.000191
1911.213001	139.253807	0.000191	186.068726	0.000191
1914.118001	137.428951	0.000191	183.926296	0.000191
1917.204000	136.873436	0.000191	182.418537	0.000191
1920.122000	138.222408	0.000191	180.831623	0.000191
1923.189000	138.143253	0.000191	178.530884	0.000191
1926.126000	140.285683	0.000191	179.086399	0.000191
1929.205000	137.111855	0.000191	179.483128	0.000191
1932.126000	139.809322	0.000191	182.339382	0.000191
1935.122000	136.000824	0.000191	181.942654	0.000191
1938.226000	132.747364	0.000191	179.879856	0.000191
1941.137001	131.319237	0.000191	179.086399	0.000191
1944.134001	129.415226	0.000191	179.403496	0.000191
1947.206000	130.605412	0.000191	180.593681	0.000191
1950.134000	128.621769	0.000191	171.151352	0.000191
1953.118000	123.225880	0.000191	167.263699	0.000191
1956.114001	122.353268	0.000191	170.119953	0.000191
1959.225000	120.607567	0.000191	165.755939	0.000191
1962.114001	117.592525	0.000191	165.359211	0.000191
1965.114001	117.592525	0.000191	166.311455	0.000191
1968.117001	119.099808	0.000191	170.040798	0.000191
1971.192000	117.592525	0.000191	168.770981	0.000191
1974.122000	116.322708	0.000191	167.104912	0.000191
1977.142000	113.704395	0.000191	166.866970	0.000191
1980.203000	114.021492	0.000191	167.580795	0.000191
1983.119000	110.371780	0.000191	168.453884	0.000191
1986.120000	110.530567	0.000191	168.295097	0.000191
1989.182001	116.084766	0.000191	169.008923	0.000191
1992.193000	119.020653	0.000191	169.802380	0.000191
1995.189001	119.099808	0.000191	170.516682	0.000191
1998.140000	120.607567	0.000191	171.865654	0.000191
2001.119000	120.607567	0.000191	172.500324	0.000191
2004.120000	121.242237	0.000191	174.325180	0.000191
2007.120000	120.527935	0.000191	173.293781	0.000191
2010.125000	124.416065	0.000191	174.960327	0.000191
2013.145000	127.272797	0.000191	175.832939	0.000191
2016.122000	129.811954	0.000191	178.372097	0.000191
2019.159000	126.082611	0.000191	180.434895	0.000191
2022.122001	125.765038	0.000191	178.372097	0.000191
2025.126000	125.209522	0.000191	177.340698	0.000191
2028.146000	129.097652	0.000191	176.943970	0.000191
2031.138000	129.811954	0.000191	176.705551	0.000191
2034.139000	131.319237	0.000191	177.023125	0.000191
2037.119000	131.160450	0.000191	177.340698	0.000191
2040.127000	132.906151	0.000191	179.324341	0.000191
2043.192000	134.334278	0.000191	179.562283	0.000191
2046.139001	133.223724	0.000191	180.673313	0.000191
2049.164000	130.843353	0.000191	180.355740	0.000191
2052.193000	129.732323	0.000191	184.481812	0.000191
2055.119000	126.082611	0.000191	181.625080	0.000191
2058.132000	130.287838	0.000191	182.180595	0.000191
2061.127000	127.431107	0.000191	181.149197	0.000191
2064.134000	131.795597	0.000191	180.117798	0.000191
2067.188000	132.668209	0.000191	180.355740	0.000191
2070.127001	139.333439	0.000191	181.704712	0.000191
2073.139001	136.873436	0.000191	181.942654	0.000191
2076.156000	132.112694	0.000191	181.863499	0.000191
2079.143001	130.366993	0.000191	182.736111	0.000191
2082.215000	130.129051	0.000191	181.625080	0.000191
2085.146000	130.208683	0.000191	178.372097	0.000191
2088.154001	122.035694	0.000191	178.530884	0.000191
2091.149001	121.083450	0.000191	178.451252	0.000191
2094.145000	121.242237	0.000191	175.912094	0.000191
2097.179001	119.337749	0.000191	175.832939	0.000191
2100.232000	120.289993	0.000191	174.642754	0.000191
2103.212000	120.052052	0.000191	172.976685	0.000191
2106.159000	120.131207	0.000191	172.817898	0.000191
2109.172000	122.353268	0.000191	172.976685	0.000191
2112.130000	121.401024	0.000191	174.960327	0.000191
2115.201001	120.527935	0.000191	176.150513	0.000191
2118.130001	120.607567	0.000191	174.404812	0.000191
2121.177001	120.131207	0.000191	173.373413	0.000191
2124.128001	119.655323	0.000191	174.166870	0.000191
2127.189000	117.512894	0.000191	176.864338	0.000191
2130.131000	117.830467	0.000191	169.008923	0.000191
2133.197000	118.861866	0.000191	166.628551	0.000191
2136.165000	118.623924	0.000191	166.787338	0.000191
2139.201000	115.688038	0.000191	170.119953	0.000191
2142.136001	110.530567	0.000191	173.928452	0.000191
2145.127000	111.799908	0.000191	171.627712	0.000191
2148.201001	111.006451	0.000191	170.119953	0.000191
2151.128001	114.814949	0.000191	169.564438	0.000191
2154.223000	116.163921	0.000191	168.057156	0.000191
2157.129000	107.515049	0.000191	167.580795	0.000191
2160.213000	110.689354	0.000191	163.295937	0.000191
2163.159000	110.371780	0.000191	162.423325	0.000191
2166.208000	114.259911	0.000191	163.137627	0.000191
2169.208001	112.990093	0.000191	164.010239	0.000191
2172.142001	115.767193	0.000191	166.866970	0.000191
2175.225000	109.975052	0.000191	167.104912	0.000191
2178.146001	103.547764	0.000191	168.374252	0.000191
2181.142000	106.483650	0.000191	171.389294	0.000191
2184.130000	109.101963	0.000191	171.627712	0.000191
2187.155000	108.308506	0.000191	171.389294	0.000191
2190.130000	111.086082	0.000191	170.595837	0.000191
2193.139000	109.340382	0.000191	171.389294	0.000191
2196.197001	109.260750	0.000191	169.485283	0.000191
2199.148000	109.737110	0.000191	169.961166	0.000191
2202.227001	113.069725	0.000191	169.564438	0.000191
2205.148000	113.624763	0.000191	171.072197	0.000191
2208.194000	113.704395	0.000191	171.072197	0.000191
2211.218000	115.767193	0.000191	171.944809	0.000191
2214.185000	113.624763	0.000191	174.166870	0.000191
2217.149000	113.624763	0.000191	172.659111	0.000191
2220.207000	118.306351	0.000191	173.055840	0.000191
2223.132001	117.830467	0.000191	174.166870	0.000191
2226.133000	117.274952	0.000191	175.198269	0.000191
2229.132001	114.735794	0.000191	176.467609	0.000191
2232.136000	114.021492	0.000191	175.436211	0.000191
2235.125000	113.228035	0.000191	177.499008	0.000191
2238.136001	113.704395	0.000191	175.118637	0.000191
2241.199000	115.688038	0.000191	167.898369	0.000191
2244.228001	122.194481	0.000191	167.263699	0.000191
2247.178000	123.146725	0.000191	166.470242	0.000191
2250.140000	121.401024	0.000191	166.311455	0.000191
2253.240000	120.607567	0.000191	167.263699	0.000191
2256.200001	120.289993	0.000191	166.152668	0.000191
2259.224000	120.686722	0.000191	167.263699	0.000191
2262.223000	120.607567	0.000191	163.375568	0.000191
2265.174000	121.321392	0.000191	162.105751	0.000191
2268.240000	121.163082	0.000191	161.074352	0.000191
2271.186000	125.685883	0.000191	160.598469	0.000191
2274.132001	128.938866	0.000191	161.471081	0.000191
2277.157001	133.779240	0.000191	163.613510	0.000191
2280.202001	132.906151	0.000191	164.803696	0.000191
2283.220000	135.842037	0.000191	166.073513	0.000191
2286.240000	132.826996	0.000191	167.104912	0.000191
2289.133000	133.382511	0.000191	162.740898	0.000191
2292.125000	131.081295	0.000191	161.788654	0.000191
2295.141000	134.334278	0.000191	162.978840	0.000191
2298.132000	134.889793	0.000191	164.327812	0.000191
2301.132001	131.240082	0.000191	164.486122	0.000191
2304.236001	125.844193	0.000191	165.041637	0.000191
2307.149001	129.811954	0.000191	166.311455	0.000191
2310.173000	131.160450	0.000191	162.740898	0.000191
2313.122000	132.826996	0.000191	163.057995	0.000191
2316.133000	140.761566	0.000191	165.755939	0.000191
2319.170000	146.156979	0.000191	168.295097	0.000191
2322.137000	146.712494	0.000191	169.485283	0.000191
2325.134000	146.712494	0.000191	169.882011	0.000191
2328.234001	147.982311	0.000191	167.818737	0.000191
2331.176001	148.537827	0.000191	164.882851	0.000191
2334.142001	147.505951	0.000191	159.884167	0.000191
2337.150000	146.553707	0.000191	159.487438	0.000191
2340.219000	140.443993	0.000191	161.788654	0.000191
2343.232000	134.651852	0.000191	161.074352	0.000191
2346.139000	135.366154	0.000191	161.471081	0.000191
2349.135001	139.968109	0.000191	160.995197	0.000191
2352.136001	140.443993	0.000191	160.280895	0.000191
2355.135001	140.443993	0.000191	161.074352	0.000191
2358.143001	139.492226	0.000191	163.931084	0.000191
2361.223000	139.174652	0.000191	163.295937	0.000191
2364.151000	138.777924	0.000191	161.867809	0.000191
2367.135000	137.508583	0.000191	159.963799	0.000191
2370.223001	135.286522	0.000191	161.471081	0.000191
2373.218000	139.015865	0.000191	161.074352	0.000191
2376.139000	136.873436	0.000191	161.312294	0.000191
2379.195001	136.397552	0.000191	162.502480	0.000191
2382.135001	134.413910	0.000191	160.518837	0.000191
2385.160001	135.762882	0.000191	158.218098	0.000191
2388.136000	134.175968	0.000191	158.931923	0.000191
2391.160000	134.413910	0.000191	158.059311	0.000191
2394.135000	135.842037	0.000191	158.297253	0.000191
2397.136001	138.619137	0.000191	158.059311	0.000191
2400.135001	133.144093	0.000191	156.710339	0.000191
2403.164001	134.413910	0.000191	155.916882	0.000191
2406.133000	132.192326	0.000191	156.313610	0.000191
2409.157001	131.715965	0.000191	155.916882	0.000191
2412.220001	133.461666	0.000191	154.964638	0.000191
2415.147000	131.636810	0.000191	153.854084	0.000191
2418.225000	131.081295	0.000191	153.933239	0.000191
2421.159000	129.811954	0.000191	153.218937	0.000191
2424.163000	135.128212	0.000191	148.299408	0.000191
2427.230000	134.889793	0.000191	146.474552	0.000191
2430.135001	136.238766	0.000191	146.871281	0.000191
2433.135001	132.271481	0.000191	148.696136	0.000191
2436.147001	133.223724	0.000191	147.505951	0.000191
2439.156000	132.430267	0.000191	148.379040	0.000191
2442.149000	132.747364	0.000191	150.441837	0.000191
2445.232000	123.940182	0.000191	150.203896	0.000191
2448.232000	130.287838	0.000191	152.346325	0.000191
2451.137000	133.461666	0.000191	152.028751	0.000191
2454.142001	132.747364	0.000191	155.202579	0.000191
2457.157001	133.461666	0.000191	155.440998	0.000191
2460.166000	133.382511	0.000191	148.775768	0.000191
2463.146001	133.302879	0.000191	146.712494	0.000191
2466.139000	133.779240	0.000191	148.379040	0.000191
2469.171000	134.175968	0.000191	148.379040	0.000191
2472.246000	133.937550	0.000191	148.458195	0.000191
2475.151000	134.493065	0.000191	149.965954	0.000191
2478.143001	135.921669	0.000191	152.028751	0.000191
2481.146000	135.128212	0.000191	152.743053	0.000191
2484.146001	127.272797	0.000191	153.218937	0.000191
2487.142001	127.589893	0.000191	154.409122	0.000191
2490.146001	130.843353	0.000191	155.837727	0.000191
2493.150000	127.907467	0.000191	156.551552	0.000191
2496.131000	126.399708	0.000191	157.503796	0.000191
2499.233000	127.431107	0.000191	158.535194	0.000191
2502.139000	128.621769	0.000191	158.059311	0.000191
2505.135001	126.399708	0.000191	159.566593	0.000191
2508.170000	125.209522	0.000191	161.550713	0.000191
2511.219000	124.733639	0.000191	163.851452	0.000191
2514.213001	124.178123	0.000191	162.899208	0.000191
2517.242000	123.384666	0.000191	161.312294	0.000191
2520.214000	119.655323	0.000191	163.613510	0.000191
2523.159000	119.417381	0.000191	162.582111	0.000191
2526.143001	116.163921	0.000191	160.836411	0.000191
2529.148000	112.593365	0.000191	161.074352	0.000191
2532.151000	113.069725	0.000191	162.344170	0.000191
2535.178000	114.180279	0.000191	160.836411	0.000191
2538.140000	115.370464	0.000191	162.026596	0.000191
2541.131001	115.053368	0.000191	163.375568	0.000191
2544.168000	113.783550	0.000191	164.882851	0.000191
2547.140000	115.767193	0.000191	163.454723	0.000191
2550.144000	112.196636	0.000191	163.613510	0.000191
2553.217000	111.244392	0.000191	164.327812	0.000191
2556.143001	110.609722	0.000191	163.295937	0.000191
2559.159000	110.133839	0.000191	162.264538	0.000191
2562.165001	114.656639	0.000191	160.836411	0.000191
2565.145000	107.118320	0.000191	162.344170	0.000191
2568.231001	100.056839	0.000191	162.582111	0.000191
2571.254001	94.423008	0.000191	163.613510	0.000191
2574.233000	100.532722	0.000191	165.121269	0.000191
2577.240000	104.737949	0.000191	165.755939	0.000191
2580.147001	102.040482	0.000191	165.279579	0.000191
2583.147001	102.278423	0.000191	165.279579	0.000191
2586.218000	102.040482	0.000191	168.453884	0.000191
2589.148000	102.040482	0.000191	167.818737	0.000191
2592.147001	104.737949	0.000191	165.121269	0.000191
2595.197000	106.801224	0.000191	167.104912	0.000191
2598.149000	105.769825	0.000191	169.008923	0.000191
2601.210000	104.737949	0.000191	170.119953	0.000191
2604.161000	105.055523	0.000191	162.423325	0.000191
2607.153000	102.278423	0.000191	156.075668	0.000191
2610.148000	101.722908	0.000191	156.710339	0.000191
2613.148000	105.214310	0.000191	155.044270	0.000191
2616.177001	105.134678	0.000191	153.695297	0.000191
2619.210001	105.055523	0.000191	154.250813	0.000191
2622.245000	106.563282	0.000191	152.505112	0.000191
2625.169001	107.673836	0.000191	153.933239	0.000191
2628.145000	109.022808	0.000191	154.885483	0.000191
2631.148000	110.292625	0.000191	156.710339	0.000191
2634.236000	109.737110	0.000191	157.265854	0.000191
2637.235001	109.657478	0.000191	154.092026	0.000191
2640.160000	108.705235	0.000191	154.726696	0.000191
2643.222001	104.976368	0.000191	156.313610	0.000191
2646.227000	103.468609	0.000191	155.599308	0.000191
2649.210000	104.024124	0.000191	155.758095	0.000191
2652.157001	101.960850	0.000191	156.869125	0.000191
2655.169001	99.183750	0.000191	157.107067	0.000191
2658.245000	99.183750	0.000191	157.265854	0.000191
2661.166000	99.580479	0.000191	156.948280	0.000191
2664.149001	101.484966	0.000191	157.979679	0.000191
2667.240000	99.024963	0.000191	160.836411	0.000191
2670.236001	98.707867	0.000191	159.249496	0.000191
2673.219000	100.294781	0.000191	159.487438	0.000191
2676.146000	97.279739	0.000191	159.487438	0.000191
2679.237000	99.580479	0.000191	160.518837	0.000191
2682.158000	99.421692	0.000191	162.978840	0.000191
2685.175000	101.008606	0.000191	163.851452	0.000191
2688.179000	106.007767	0.000191	164.486122	0.000191
2691.201001	105.848980	0.000191	165.755939	0.000191
2694.151000	108.070564	0.000191	163.137627	0.000191
2697.151000	113.148880	0.000191	162.978840	0.000191
2700.157000	111.165237	0.000191	163.772297	0.000191
2703.181000	113.228035	0.000191	162.820053	0.000191
2706.222000	112.831306	0.000191	162.344170	0.000191
2709.169001	107.277107	0.000191	161.867809	0.000191
2712.214000	107.673836	0.000191	161.312294	0.000191
2715.214000	107.356739	0.000191	159.090710	0.000191
2718.223001	107.991409	0.000191	156.710339	0.000191
2721.152000	109.260750	0.000191	155.440998	0.000191
2724.153000	107.991409	0.000191	154.092026	0.000191
2727.159000	107.515049	0.000191	155.996037	0.000191
2730.146000	101.247025	0.000191	156.789494	0.000191
2733.232000	103.230667	0.000191	157.265854	0.000191
2736.150001	104.500008	0.000191	155.520153	0.000191
2739.211000	104.024124	0.000191	154.885483	0.000191
2742.257001	105.214310	0.000191	157.424641	0.000191
2745.170001	103.786182	0.000191	159.487438	0.000191
2748.223001	106.801224	0.000191	159.408283	0.000191
2751.153000	106.007767	0.000191	160.360527	0.000191
2754.175000	103.468609	0.000191	161.233139	0.000191
2757.219000	100.929451	0.000191	159.487438	0.000191
2760.161000	99.104595	0.000191	159.566593	0.000191
2763.158000	96.009922	0.000191	162.026596	0.000191
2766.236000	92.598152	0.000191	161.867809	0.000191
2769.266000	89.582634	0.000191	159.408283	0.000191
2772.154001	89.900208	0.000191	158.535194	0.000191
2775.154001	94.423008	0.000191	160.122108	0.000191
2778.246000	90.058994	0.000191	157.582951	0.000191
2781.180000	89.900208	0.000191	157.900524	0.000191
2784.259000	88.075352	0.000191	158.852768	0.000191
2787.172000	87.678623	0.000191	157.741737	0.000191
2790.193000	89.662266	0.000191	159.249496	0.000191
2793.230000	90.534878	0.000191	156.234455	0.000191
2796.230000	93.232822	0.000191	155.440998	0.000191
2799.189001	94.185066	0.000191	154.012394	0.000191
2802.168000	91.249180	0.000191	153.377724	0.000191
2805.210000	90.455723	0.000191	151.473236	0.000191
2808.171000	90.614510	0.000191	153.536510	0.000191
2811.189000	92.518520	0.000191	151.552868	0.000191
2814.159000	90.534878	0.000191	148.537827	0.000191
2817.222000	88.154507	0.000191	147.982311	0.000191
2820.180001	87.361050	0.000191	141.317081	0.000191
2823.164001	86.012077	0.000191	142.983150	0.000191
2826.165001	85.457039	0.000191	143.221569	0.000191
2829.160000	85.932922	0.000191	142.903996	0.000191
2832.181000	91.645908	0.000191	144.887638	0.000191
2835.160000	93.232822	0.000191	146.315765	0.000191
2838.227000	90.058994	0.000191	146.395397	0.000191
2841.201000	91.566753	0.000191	144.966793	0.000191
2844.185000	88.154507	0.000191	143.697453	0.000191
2847.238000	90.217781	0.000191	141.634655	0.000191
2850.181000	90.138149	0.000191	140.761566	0.000191
2853.185000	89.424324	0.000191	141.158295	0.000191
2856.210000	89.185905	0.000191	141.237926	0.000191
2859.160000	93.153667	0.000191	141.396236	0.000191
2862.177000	91.407967	0.000191	139.888954	0.000191
2865.160000	91.883850	0.000191	140.364838	0.000191
2868.157001	90.534878	0.000191	138.857079	0.000191
2871.202001	88.392448	0.000191	135.762882	0.000191
2874.223001	87.757778	0.000191	136.715126	0.000191
2877.172001	93.947124	0.000191	139.253807	0.000191
2880.177000	94.185066	0.000191	139.333439	0.000191
2883.239000	91.725063	0.000191	140.682411	0.000191
2886.254001	91.963482	0.000191	137.191010	0.000191
2889.250000	91.407967	0.000191	139.888954	0.000191
2892.257000	88.472080	0.000191	140.206051	0.000191
2895.155000	90.376091	0.000191	141.237926	0.000191
2898.164001	91.487122	0.000191	142.269325	0.000191
2901.164001	90.614510	0.000191	142.983150	0.000191
2904.180001	89.503479	0.000191	145.046425	0.000191
2907.167000	93.074036	0.000191	144.887638	0.000191
2910.213000	95.613194	0.000191	145.522308	0.000191
2913.176001	100.929451	0.000191	146.712494	0.000191
2916.211000	95.692348	0.000191	147.268009	0.000191
2919.265001	94.185066	0.000191	148.299408	0.000191
2922.261001	88.472080	0.000191	146.236610	0.000191
2925.165001	94.581795	0.000191	147.664738	0.000191
2928.243001	95.534039	0.000191	147.744370	0.000191
2931.166000	96.962166	0.000191	145.919037	0.000191
2934.174000	102.198792	0.000191	145.681095	0.000191
2937.257000	101.167393	0.000191	144.887638	0.000191
2940.163000	103.547764	0.000191	144.173336	0.000191
2943.188000	102.595520	0.000191	142.031384	0.000191
2946.168001	103.309822	0.000191	142.428112	0.000191
2949.164001	106.801224	0.000191	142.428112	0.000191
2952.188000	106.721592	0.000191	141.872597	0.000191
2955.168001	106.483650	0.000191	141.317081	0.000191
2958.213000	109.657478	0.000191	141.396236	0.000191
2961.168000	105.055523	0.000191	142.031384	0.000191
2964.183001	106.007767	0.000191	143.459511	0.000191
2967.168000	102.119637	0.000191	138.777924	0.000191
2970.242001	103.468609	0.000191	136.873436	0.000191
2973.200000	101.247025	0.000191	137.428951	0.000191
2976.243001	99.739265	0.000191	138.302040	0.000191
2979.172001	97.993565	0.000191	138.460350	0.000191
2982.177001	92.598152	0.000191	137.191010	0.000191
2985.268000	93.708706	0.000191	138.936710	0.000191
2988.184000	95.216465	0.000191	139.333439	0.000191
2991.230000	98.787022	0.000191	139.968109	0.000191
2994.180001	101.088238	0.000191	142.189693	0.000191
2997.235001	100.770664	0.000191	143.538666	0.000191
3000.174000	99.739265	0.000191	142.903996	0.000191
3003.168001	99.818420	0.000191	141.158295	0.000191
3006.168001	101.643753	0.000191	142.348480	0.000191
3009.165001	98.628235	0.000191	142.031384	0.000191
3012.255000	98.549080	0.000191	143.459511	0.000191
3015.173000	99.660110	0.000191	144.966793	0.000191
3018.168000	100.056839	0.000191	145.363522	0.000191
3021.226000	97.120953	0.000191	145.919037	0.000191
3024.189000	95.771980	0.000191	144.887638	0.000191
3027.198001	94.581795	0.000191	144.808483	0.000191
3030.259000	96.724224	0.000191	144.728851	0.000191
3033.223001	98.073196	0.000191	145.363522	0.000191
3036.168000	94.423008	0.000191	144.173336	0.000191
3039.180000	96.089077	0.000191	144.966793	0.000191
3042.177000	98.073196	0.000191	144.332123	0.000191
3045.276000	95.295620	0.000191	145.681095	0.000191
3048.170000	96.009922	0.000191	138.698769	0.000191
3051.170000	95.613194	0.000191	137.428951	0.000191
3054.240000	93.708706	0.000191	131.636810	0.000191
3057.185000	94.502163	0.000191	131.795597	0.000191
3060.170001	93.708706	0.000191	132.192326	0.000191
3063.237000	95.057678	0.000191	133.779240	0.000191
3066.171000	94.660950	0.000191	133.858395	0.000191
3069.279000	92.598152	0.000191	134.493065	0.000191
3072.171000	93.074036	0.000191	135.762882	0.000191
3075.163000	94.264221	0.000191	136.953068	0.000191
3078.248000	92.677307	0.000191	136.873436	0.000191
3081.257001	98.152351	0.000191	136.238766	0.000191
3084.191001	100.056839	0.000191	139.888954	0.000191
3087.191001	99.263382	0.000191	140.920353	0.000191
3090.199000	101.722908	0.000191	140.443993	0.000191
3093.170000	100.770664	0.000191	142.507267	0.000191
3096.191000	86.091709	0.000191	144.649696	0.000191
3099.170000	90.058994	0.000191	145.046425	0.000191
3102.175001	98.549080	0.000191	145.205212	0.000191
3105.274001	101.802063	0.000191	145.760250	0.000191
3108.258000	103.071880	0.000191	145.998669	0.000191
3111.192000	104.262066	0.000191	144.808483	0.000191
3114.196000	103.230667	0.000191	146.792126	0.000191
3117.172000	99.977207	0.000191	145.919037	0.000191
3120.171000	97.279739	0.000191	145.443153	0.000191
3123.271000	97.914410	0.000191	142.428112	0.000191
3126.200000	95.930767	0.000191	140.206051	0.000191
3129.184001	100.929451	0.000191	136.476707	0.000191
3132.253001	98.549080	0.000191	133.699608	0.000191
3135.197001	94.185066	0.000191	133.302879	0.000191
3138.177001	93.629551	0.000191	134.096336	0.000191
3141.281000	95.930767	0.000191	132.589054	0.000191
3144.181000	100.929451	0.000191	131.319237	0.000191
3147.176001	102.198792	0.000191	131.398869	0.000191
3150.276000	104.737949	0.000191	132.271481	0.000191
3153.251000	109.340382	0.000191	132.430267	0.000191
3156.202001	106.960011	0.000191	131.240082	0.000191
3159.283001	103.547764	0.000191	131.398869	0.000191
3162.234001	99.501324	0.000191	133.302879	0.000191
3165.204000	96.485806	0.000191	134.255123	0.000191
3168.267000	99.739265	0.000191	136.159611	0.000191
3171.172000	99.501324	0.000191	135.762882	0.000191
3174.250000	99.104595	0.000191	135.445309	0.000191
3177.175000	104.262066	0.000191	135.128212	0.000191
3180.273000	153.377724	0.000191	135.445309	0.000191
3183.176001	162.502480	0.000191	136.794281	0.000191
3186.254001	161.391926	0.000191	135.842037	0.000191
3189.189001	160.360527	0.000191	136.635494	0.000191
3192.178000	159.011555	0.000191	137.270164	0.000191
3195.244000	157.900524	0.000191	137.428951	0.000191
3198.285000	163.057995	0.000191	138.777924	0.000191
3201.260000	164.803696	0.000191	140.523624	0.000191
3204.197001	162.899208	0.000191	141.317081	0.000191
3207.190001	161.471081	0.000191	143.459511	0.000191
3210.265001	162.502480	0.000191	143.776608	0.000191
3213.198001	164.248180	0.000191	143.776608	0.000191
3216.188000	163.295937	0.000191	140.682411	0.000191
3219.277000	162.899208	0.000191	139.888954	0.000191
3222.182000	162.740898	0.000191	138.777924	0.000191
3225.180000	160.360527	0.000191	138.460350	0.000191
3228.261001	160.360527	0.000191	136.159611	0.000191
3231.204000	159.408283	0.000191	135.842037	0.000191
3234.283000	156.948280	0.000191	139.333439	0.000191
3237.204000	154.726696	0.000191	138.857079	0.000191
3240.192000	154.885483	0.000191	140.920353	0.000191
3243.263000	155.361366	0.000191	141.792965	0.000191
3246.200000	155.044270	0.000191	139.730167	0.000191
3249.191000	154.567909	0.000191	139.888954	0.000191
3252.263000	151.473236	0.000191	139.333439	0.000191
3255.208000	153.298569	0.000191	139.492226	0.000191
3258.241000	151.711655	0.000191	140.364838	0.000191
3261.192000	150.759411	0.000191	140.206051	0.000191
3264.283001	150.759411	0.000191	140.443993	0.000191
3267.184001	150.441837	0.000191	140.206051	0.000191
3270.180000	150.521469	0.000191	140.443993	0.000191
3273.209000	149.965954	0.000191	137.666893	0.000191
3276.214000	149.172497	0.000191	137.666893	0.000191
3279.192000	147.268009	0.000191	138.381195	0.000191
3282.198000	143.379879	0.000191	138.857079	0.000191
3285.202001	144.173336	0.000191	138.698769	0.000191
3288.245000	145.839882	0.000191	137.984467	0.000191
3291.181000	143.935394	0.000191	136.953068	0.000191
3294.182001	140.761566	0.000191	136.238766	0.000191
3297.203000	133.302879	0.000191	133.699608	0.000191
3300.183000	137.825680	0.000191	131.715965	0.000191
3303.184000	132.271481	0.000191	132.985783	0.000191
3306.196000	132.668209	0.000191	132.826996	0.000191
3309.183001	134.651852	0.000191	132.271481	0.000191
3312.205000	138.857079	0.000191	131.478024	0.000191
3315.185000	141.158295	0.000191	131.795597	0.000191
3318.256001	138.857079	0.000191	132.350636	0.000191
3321.182000	138.777924	0.000191	133.144093	0.000191
3324.186000	137.428951	0.000191	132.906151	0.000191
3327.277000	135.445309	0.000191	132.747364	0.000191
3330.264000	136.159611	0.000191	131.081295	0.000191
3333.185000	135.842037	0.000191	132.271481	0.000191
3336.194001	135.842037	0.000191	132.430267	0.000191
3339.264000	129.811954	0.000191	132.589054	0.000191
3342.185000	131.319237	0.000191	133.302879	0.000191
3345.276001	132.350636	0.000191	134.493065	0.000191
3348.186000	133.858395	0.000191	136.000824	0.000191
3351.235000	133.223724	0.000191	136.873436	0.000191
3354.190001	130.605412	0.000191	136.715126	0.000191
3357.182000	131.953907	0.000191	138.302040	0.000191
3360.185000	128.938866	0.000191	137.984467	0.000191
3363.259000	131.160450	0.000191	139.730167	0.000191
3366.206001	134.255123	0.000191	135.842037	0.000191
3369.261001	132.985783	0.000191	132.350636	0.000191
3372.186001	132.826996	0.000191	130.763721	0.000191
3375.275000	132.589054	0.000191	129.891109	0.000191
3378.188000	131.715965	0.000191	131.874752	0.000191
3381.188000	133.223724	0.000191	132.906151	0.000191
3384.192000	134.255123	0.000191	134.175968	0.000191
3387.188000	128.780079	0.000191	135.921669	0.000191
3390.189001	127.272797	0.000191	130.922508	0.000191
3393.222001	124.812794	0.000191	130.684566	0.000191
3396.192000	123.940182	0.000191	129.970264	0.000191
3399.213000	126.320553	0.000191	130.763721	0.000191
3402.205000	127.193165	0.000191	129.732323	0.000191
3405.267000	128.700924	0.000191	129.811954	0.000191
3408.264000	129.097652	0.000191	130.287838	0.000191
3411.270000	130.287838	0.000191	131.874752	0.000191
3414.214000	132.192326	0.000191	131.874752	0.000191
3417.274001	130.843353	0.000191	131.874752	0.000191
3420.270000	131.715965	0.000191	131.240082	0.000191
3423.244000	132.430267	0.000191	132.747364	0.000191
3426.264000	132.589054	0.000191	132.192326	0.000191
3429.211000	132.747364	0.000191	132.668209	0.000191
3432.220000	131.160450	0.000191	133.779240	0.000191
3435.192000	127.827835	0.000191	134.096336	0.000191
3438.257000	127.907467	0.000191	132.192326	0.000191
3441.205000	132.985783	0.000191	133.461666	0.000191
3444.276001	132.985783	0.000191	134.175968	0.000191
3447.194001	132.589054	0.000191	132.430267	0.000191
3450.190001	135.842037	0.000191	132.271481	0.000191
3453.265000	135.128212	0.000191	132.747364	0.000191
3456.222000	136.238766	0.000191	131.319237	0.000191
3459.232000	138.936710	0.000191	130.366993	0.000191
3462.194000	141.951752	0.000191	130.922508	0.000191
3465.198000	136.238766	0.000191	131.636810	0.000191
3468.194001	136.397552	0.000191	132.192326	0.000191
3471.211000	139.492226	0.000191	129.573536	0.000191
3474.283001	139.333439	0.000191	129.732323	0.000191
3477.217000	140.285683	0.000191	128.780079	0.000191
3480.209000	137.508583	0.000191	128.066254	0.000191
3483.264000	140.523624	0.000191	129.653168	0.000191
3486.227000	139.730167	0.000191	126.082611	0.000191
3489.213001	139.730167	0.000191	127.589893	0.000191
3492.213001	141.237926	0.000191	126.876068	0.000191
3495.234001	135.762882	0.000191	122.432423	0.000191
3498.199000	136.000824	0.000191	120.210838	0.000191
3501.257001	132.271481	0.000191	121.321392	0.000191
3504.277000	135.445309	0.000191	120.845509	0.000191
3507.198000	136.238766	0.000191	119.734478	0.000191
3510.220000	137.111855	0.000191	121.876907	0.000191
3513.293000	138.381195	0.000191	123.702240	0.000191
3516.200000	138.222408	0.000191	125.447464	0.000191
3519.266000	139.809322	0.000191	125.050735	0.000191
3522.245000	141.237926	0.000191	124.812794	0.000191
3525.280000	140.920353	0.000191	123.781395	0.000191
3528.200001	140.523624	0.000191	124.098969	0.000191
3531.291000	137.111855	0.000191	124.416065	0.000191
3534.304000	136.953068	0.000191	124.812794	0.000191
3537.267000	137.111855	0.000191	124.098969	0.000191
3540.271000	137.349796	0.000191	123.940182	0.000191
3543.278000	139.412594	0.000191	123.225880	0.000191
3546.226000	133.699608	0.000191	125.606251	0.000191
3549.259000	132.430267	0.000191	125.923824	0.000191
3552.284000	133.223724	0.000191	128.859711	0.000191
3555.301000	132.350636	0.000191	122.591209	0.000191
3558.272000	134.096336	0.000191	122.432423	0.000191
3561.206000	130.366993	0.000191	116.640282	0.000191
3564.209001	127.589893	0.000191	120.289993	0.000191
3567.199000	130.446625	0.000191	118.861866	0.000191
3570.199000	132.112694	0.000191	120.052052	0.000191
3573.282001	130.605412	0.000191	120.766354	0.000191
3576.222001	131.319237	0.000191	122.035694	0.000191
3579.204000	135.366154	0.000191	124.654007	0.000191
3582.212000	134.175968	0.000191	123.940182	0.000191
3585.202001	135.683250	0.000191	123.940182	0.000191
3588.230000	129.176807	0.000191	125.289154	0.000191
3591.290000	123.702240	0.000191	123.702240	0.000191
3594.205000	123.225880	0.000191	121.797752	0.000191
3597.293001	119.337749	0.000191	122.908783	0.000191
3600.234001	117.830467	0.000191	122.353268	0.000191
3603.252000	117.671680	0.000191	120.607567	0.000191
3606.210001	118.703079	0.000191	122.670364	0.000191
3609.206000	121.242237	0.000191	121.401024	0.000191
3612.222000	122.670364	0.000191	119.179440	0.000191
3615.205000	121.638966	0.000191	118.306351	0.000191
3618.208000	121.718121	0.000191	118.068409	0.000191
3621.243001	122.194481	0.000191	119.337749	0.000191
3624.225000	118.703079	0.000191	120.924664	0.000191
3627.251000	119.893265	0.000191	119.814110	0.000191
3630.227001	114.735794	0.000191	120.052052	0.000191
3633.203000	114.497852	0.000191	119.337749	0.000191
3636.203000	112.752151	0.000191	118.147564	0.000191
3639.207000	117.512894	0.000191	119.655323	0.000191
3642.219000	117.830467	0.000191	115.370464	0.000191
3645.206001	120.131207	0.000191	114.339066	0.000191
3648.276000	119.258595	0.000191	116.163921	0.000191
3651.227001	119.020653	0.000191	116.799068	0.000191
3654.207000	121.559811	0.000191	116.005611	0.000191
3657.287001	120.210838	0.000191	115.688038	0.000191
3660.208000	120.924664	0.000191	116.322708	0.000191
3663.253000	123.225880	0.000191	115.608406	0.000191
3666.294001	122.749996	0.000191	115.529251	0.000191
3669.278000	123.702240	0.000191	114.814949	0.000191
3672.223001	126.082611	0.000191	115.291309	0.000191
3675.269000	127.431107	0.000191	112.990093	0.000191
3678.209001	129.097652	0.000191	112.037849	0.000191
3681.209001	133.302879	0.000191	112.593365	0.000191
3684.313001	133.144093	0.000191	112.752151	0.000191
3687.211000	131.795597	0.000191	113.863182	0.000191
3690.211000	129.097652	0.000191	114.656639	0.000191
3693.220000	124.336910	0.000191	116.402340	0.000191
3696.316000	124.892426	0.000191	114.656639	0.000191
3699.262000	122.670364	0.000191	115.846825	0.000191
3702.212000	117.116165	0.000191	115.291309	0.000191
3705.308001	118.703079	0.000191	111.641121	0.000191
3708.279001	120.527935	0.000191	111.482811	0.000191
3711.209000	119.734478	0.000191	112.037849	0.000191
3714.206000	118.861866	0.000191	113.228035	0.000191
3717.213000	117.671680	0.000191	113.624763	0.000191
3720.207000	115.767193	0.000191	115.211678	0.000191
3723.272001	115.608406	0.000191	114.339066	0.000191
3726.306000	116.005611	0.000191	113.624763	0.000191
3729.210000	117.512894	0.000191	114.497852	0.000191
3732.236001	116.799068	0.000191	114.735794	0.000191
3735.215001	116.560650	0.000191	115.608406	0.000191
3738.286000	115.529251	0.000191	115.132523	0.000191
3741.244000	119.655323	0.000191	115.767193	0.000191
3744.228001	119.893265	0.000191	115.767193	0.000191
3747.215000	123.781395	0.000191	115.529251	0.000191
3750.278000	127.827835	0.000191	116.243553	0.000191
3753.216001	125.923824	0.000191	118.147564	0.000191
3756.220001	125.685883	0.000191	113.386822	0.000191
3759.224001	125.606251	0.000191	112.037849	0.000191
3762.275001	125.844193	0.000191	112.196636	0.000191
3765.215000	125.685883	0.000191	112.672997	0.000191
3768.236000	122.194481	0.000191	114.497852	0.000191
3771.278000	119.337749	0.000191	113.307667	0.000191
3774.227000	120.052052	0.000191	114.101124	0.000191
3777.216001	120.131207	0.000191	116.084766	0.000191
3780.217001	123.384666	0.000191	116.005611	0.000191
3783.292000	123.543453	0.000191	115.211678	0.000191
3786.217001	119.655323	0.000191	116.163921	0.000191
3789.288000	119.099808	0.000191	116.084766	0.000191
3792.214000	120.766354	0.000191	116.719437	0.000191
3795.218000	120.289993	0.000191	115.291309	0.000191
3798.219000	118.227196	0.000191	113.545609	0.000191
3801.219000	118.068409	0.000191	113.545609	0.000191
3804.281000	118.861866	0.000191	110.292625	0.000191
3807.218000	119.337749	0.000191	109.101963	0.000191
3810.227001	121.321392	0.000191	110.133839	0.000191
3813.221000	120.766354	0.000191	108.784866	0.000191
3816.228000	119.099808	0.000191	108.864021	0.000191
3819.233000	120.607567	0.000191	108.150196	0.000191
3822.234000	121.401024	0.000191	109.578323	0.000191
3825.243001	123.781395	0.000191	111.324024	0.000191
3828.330000	125.923824	0.000191	111.006451	0.000191
3831.223001	128.938866	0.000191	112.593365	0.000191
3834.231001	128.224564	0.000191	112.593365	0.000191
3837.222001	128.938866	0.000191	114.656639	0.000191
3840.273000	127.272797	0.000191	113.624763	0.000191
3843.231000	129.732323	0.000191	115.529251	0.000191
3846.215000	131.160450	0.000191	115.767193	0.000191
3849.220000	133.461666	0.000191	115.688038	0.000191
3852.244000	158.773136	0.000191	114.656639	0.000191
3855.316000	159.011555	0.000191	116.402340	0.000191
3858.233000	159.408283	0.000191	113.307667	0.000191
3861.262001	157.741737	0.000191	112.990093	0.000191
3864.225000	151.790810	0.000191	112.672997	0.000191
3867.325000	152.028751	0.000191	117.512894	0.000191
3870.243001	156.948280	0.000191	115.529251	0.000191
3873.330000	156.392765	0.000191	119.179440	0.000191
3876.222000	155.361366	0.000191	116.243553	0.000191
3879.223001	157.424641	0.000191	115.291309	0.000191
3882.335001	160.598469	0.000191	115.608406	0.000191
3885.297000	161.391926	0.000191	113.863182	0.000191
3888.319001	159.725380	0.000191	115.688038	0.000191
3891.336000	155.282211	0.000191	112.990093	0.000191
3894.298000	154.250813	0.000191	116.005611	0.000191
3897.229000	150.759411	0.000191	113.783550	0.000191
3900.336000	144.808483	0.000191	111.641121	0.000191
3903.258000	142.189693	0.000191	112.037849	0.000191
3906.328000	139.333439	0.000191	113.624763	0.000191
3909.241001	156.710339	0.000191	111.561966	0.000191
3912.328000	163.851452	0.000191	110.530567	0.000191
3915.337001	170.992565	0.000191	112.593365	0.000191
3918.319001	181.070042	0.000191	113.386822	0.000191
3921.229000	185.592842	0.000191	115.053368	0.000191
3924.321000	191.622925	0.000191	115.688038	0.000191
3927.318000	196.939182	0.000191	113.386822	0.000191
3930.232000	201.541138	0.000191	113.148880	0.000191
3933.298001	197.653484	0.000191	108.705235	0.000191
3936.295000	197.732639	0.000191	108.070564	0.000191
3939.269000	196.542454	0.000191	107.197952	0.000191
3942.340001	198.922825	0.000191	109.022808	0.000191
3945.233000	200.192642	0.000191	110.292625	0.000191
3948.340000	201.303196	0.000191	112.672997	0.000191
3951.253000	204.159927	0.000191	110.133839	0.000191
3954.269000	204.953384	0.000191	109.737110	0.000191
3957.254001	204.159927	0.000191	110.133839	0.000191
3960.271000	202.810955	0.000191	111.086082	0.000191
3963.233000	201.779556	0.000191	112.037849	0.000191
3966.233000	200.668526	0.000191	111.641121	0.000191
3969.312001	204.001141	0.000191	112.037849	0.000191
3972.321000	196.621609	0.000191	111.561966	0.000191
3975.258000	193.051052	0.000191	111.086082	0.000191
3978.238000	199.954224	0.000191	111.641121	0.000191
3981.254001	199.637127	0.000191	111.086082	0.000191
3984.262000	192.099285	0.000191	111.086082	0.000191
3987.230000	193.289471	0.000191	110.689354	0.000191
3990.241001	192.178440	0.000191	109.657478	0.000191
3993.241001	194.796753	0.000191	110.530567	0.000191
3996.235000	195.431423	0.000191	108.546925	0.000191
3999.331000	193.606567	0.000191	108.546925	0.000191
4002.235001	194.796753	0.000191	108.626080	0.000191
4005.240000	195.193481	0.000191	109.737110	0.000191
4008.295000	199.319553	0.000191	108.705235	0.000191
4011.233000	193.051052	0.000191	110.847664	0.000191
4014.236000	195.034695	0.000191	108.705235	0.000191
4017.332000	191.147041	0.000191	110.371780	0.000191
4020.237000	189.083767	0.000191	110.530567	0.000191
4023.290000	187.576485	0.000191	108.467293	0.000191
4026.299000	185.751152	0.000191	107.039165	0.000191
4029.237000	187.893581	0.000191	107.356739	0.000191
4032.238000	188.766670	0.000191	108.308506	0.000191
4035.299000	192.099285	0.000191	107.832623	0.000191
4038.313001	193.527412	0.000191	105.452251	0.000191
4041.316001	193.527412	0.000191	104.976368	0.000191
4044.345001	191.702557	0.000191	105.611038	0.000191
4047.242001	196.224880	0.000191	106.483650	0.000191
4050.308000	195.114326	0.000191	106.483650	0.000191
4053.237000	191.226196	0.000191	107.515049	0.000191
4056.237000	185.671997	0.000191	107.991409	0.000191
4059.266000	185.037327	0.000191	107.356739	0.000191
4062.333000	185.354424	0.000191	107.991409	0.000191
4065.238000	186.068726	0.000191	107.197952	0.000191
4068.262001	186.147881	0.000191	107.356739	0.000191
4071.245001	187.576485	0.000191	107.515049	0.000191
4074.245000	190.273952	0.000191	108.784866	0.000191
4077.308000	190.432739	0.000191	107.356739	0.000191
4080.329000	189.718437	0.000191	106.245708	0.000191
4083.258000	189.242554	0.000191	104.182911	0.000191
4086.307000	187.417698	0.000191	100.929451	0.000191
4089.245000	187.655640	0.000191	100.215149	0.000191
4092.313001	189.560127	0.000191	100.770664	0.000191
4095.308001	189.004612	0.000191	101.008606	0.000191
4098.280000	190.036011	0.000191	100.215149	0.000191
4101.346000	184.085083	0.000191	102.119637	0.000191
4104.309000	184.640598	0.000191	101.643753	0.000191
4107.272000	181.149197	0.000191	100.453568	0.000191
4110.264000	182.736111	0.000191	100.294781	0.000191
4113.246001	185.592842	0.000191	99.501324	0.000191
4116.239001	185.354424	0.000191	100.453568	0.000191
4119.239001	186.465454	0.000191	100.770664	0.000191
4122.318000	187.496853	0.000191	101.722908	0.000191
4125.239001	189.877224	0.000191	101.484966	0.000191
4128.248000	194.796753	0.000191	101.802063	0.000191
4131.256000	195.590210	0.000191	102.040482	0.000191
4134.335001	190.670681	0.000191	103.071880	0.000191
4137.244000	187.893581	0.000191	103.468609	0.000191
4140.236000	189.083767	0.000191	103.151035	0.000191
4143.240000	190.432739	0.000191	104.262066	0.000191
4146.298001	184.640598	0.000191	103.230667	0.000191
4149.308001	183.053684	0.000191	101.326180	0.000191
4152.240000	184.085083	0.000191	102.754307	0.000191
4155.348000	185.592842	0.000191	102.278423	0.000191
4158.240000	187.179756	0.000191	104.262066	0.000191
4161.233000	184.402180	0.000191	105.293465	0.000191
4164.348001	184.640598	0.000191	102.516365	0.000191
4167.237000	183.608723	0.000191	102.754307	0.000191
4170.345001	185.909939	0.000191	102.516365	0.000191
4173.238001	181.149197	0.000191	103.547764	0.000191
4176.262001	179.324341	0.000191	104.737949	0.000191
4179.241000	176.308823	0.000191	105.690193	0.000191
4182.246000	175.436211	0.000191	106.642437	0.000191
4185.345000	172.421169	0.000191	107.197952	0.000191
4188.271000	174.642754	0.000191	106.642437	0.000191
4191.311000	175.198269	0.000191	105.452251	0.000191
4194.241001	175.118637	0.000191	105.848980	0.000191
4197.307001	180.355740	0.000191	105.848980	0.000191
4200.295001	182.180595	0.000191	106.721592	0.000191
4203.245001	180.673313	0.000191	107.832623	0.000191
4206.333000	183.608723	0.000191	107.991409	0.000191
4209.249000	183.926296	0.000191	110.292625	0.000191
4212.242001	182.974052	0.000191	110.609722	0.000191
4215.242001	179.959011	0.000191	111.641121	0.000191
4218.245000	181.070042	0.000191	111.482811	0.000191
4221.262000	180.196953	0.000191	108.784866	0.000191
4224.238001	180.038166	0.000191	109.737110	0.000191
4227.283001	183.132839	0.000191	107.753468	0.000191
4230.299000	183.926296	0.000191	105.611038	0.000191
4233.242000	181.545925	0.000191	104.579639	0.000191
4236.242001	180.514526	0.000191	104.024124	0.000191
4239.263000	179.324341	0.000191	104.737949	0.000191
4242.313001	179.641438	0.000191	100.453568	0.000191
4245.334001	179.879856	0.000191	98.707867	0.000191
4248.242001	182.101440	0.000191	99.104595	0.000191
4251.326001	178.451252	0.000191	98.311138	0.000191
4254.243001	179.403496	0.000191	100.532722	0.000191
4257.251000	181.387138	0.000191	101.960850	0.000191
4260.352000	181.228352	0.000191	102.119637	0.000191
4263.322000	181.704712	0.000191	101.167393	0.000191
4266.243001	179.879856	0.000191	102.675152	0.000191
4269.320001	179.562283	0.000191	104.976368	0.000191
4272.267001	182.101440	0.000191	105.690193	0.000191
4275.285000	179.879856	0.000191	105.690193	0.000191
4278.244000	179.959011	0.000191	107.039165	0.000191
4281.302001	180.196953	0.000191	107.673836	0.000191
4284.253000	175.198269	0.000191	110.689354	0.000191
4287.249000	171.786022	0.000191	107.832623	0.000191
4290.269000	173.452568	0.000191	106.801224	0.000191
4293.244000	175.674152	0.000191	104.737949	0.000191
4296.277000	174.960327	0.000191	105.769825	0.000191
4299.331001	175.436211	0.000191	107.277107	0.000191
4302.295000	177.181911	0.000191	107.832623	0.000191
4305.308001	178.134155	0.000191	107.118320	0.000191
4308.253000	180.911255	0.000191	109.101963	0.000191
4311.245000	178.213310	0.000191	107.991409	0.000191
4314.312000	180.117798	0.000191	107.356739	0.000191
4317.275001	179.165554	0.000191	107.515049	0.000191
4320.243001	179.483128	0.000191	109.260750	0.000191
4323.264000	179.086399	0.000191	109.260750	0.000191
4326.307001	179.721069	0.000191	108.546925	0.000191
4329.262001	180.038166	0.000191	110.212994	0.000191
4332.256001	181.625080	0.000191	111.720753	0.000191
4335.311000	181.387138	0.000191	111.244392	0.000191
4338.252000	179.006767	0.000191	109.816265	0.000191
4341.253000	181.149197	0.000191	109.340382	0.000191
4344.253000	180.196953	0.000191	109.181595	0.000191
4347.260000	182.577324	0.000191	109.737110	0.000191
4350.328000	180.196953	0.000191	110.212994	0.000191
4353.310000	182.736111	0.000191	108.626080	0.000191
4356.256001	182.974052	0.000191	106.801224	0.000191
4359.356001	181.387138	0.000191	106.563282	0.000191
4362.344000	178.610039	0.000191	106.483650	0.000191
4365.307000	178.451252	0.000191	103.547764	0.000191
4368.302000	179.562283	0.000191	102.437210	0.000191
4371.331001	179.641438	0.000191	102.595520	0.000191
4374.245000	176.150513	0.000191	103.627396	0.000191
4377.254001	179.641438	0.000191	104.737949	0.000191
4380.336000	178.054523	0.000191	105.214310	0.000191
4383.302001	173.611355	0.000191	104.500008	0.000191
4386.278000	175.357056	0.000191	105.214310	0.000191
4389.246000	176.705551	0.000191	105.848980	0.000191
4392.299000	173.055840	0.000191	107.356739	0.000191
4395.332000	172.024441	0.000191	105.293465	0.000191
4398.249001	171.151352	0.000191	107.118320	0.000191
4401.311000	163.534355	0.000191	107.991409	0.000191
4404.325000	161.391926	0.000191	107.197952	0.000191
4407.320001	165.121269	0.000191	108.150196	0.000191
4410.246001	162.899208	0.000191	108.626080	0.000191
4413.261000	163.534355	0.000191	109.022808	0.000191
4416.242000	164.803696	0.000191	107.673836	0.000191
4419.247000	167.660427	0.000191	107.277107	0.000191
4422.271000	167.104912	0.000191	106.324863	0.000191
4425.255000	170.437527	0.000191	107.197952	0.000191
4428.300001	170.437527	0.000191	108.546925	0.000191
4431.262000	170.834255	0.000191	106.563282	0.000191
4434.276001	168.136311	0.000191	105.293465	0.000191
4437.279001	165.993881	0.000191	106.642437	0.000191
4440.243001	165.121269	0.000191	106.166553	0.000191
4443.258000	166.152668	0.000191	106.245708	0.000191
4446.325000	169.405651	0.000191	106.563282	0.000191
4449.308001	171.151352	0.000191	105.690193	0.000191
4452.251000	171.865654	0.000191	107.039165	0.000191
4455.255000	172.421169	0.000191	107.356739	0.000191
4458.314001	173.690510	0.000191	108.467293	0.000191
4461.259000	172.341537	0.000191	104.579639	0.000191
4464.330000	170.040798	0.000191	105.293465	0.000191
4467.259000	172.024441	0.000191	103.071880	0.000191
4470.251000	171.310139	0.000191	104.262066	0.000191
4473.339000	169.088554	0.000191	102.754307	0.000191
4476.330000	168.136311	0.000191	102.198792	0.000191
4479.264000	164.803696	0.000191	106.086922	0.000191
4482.255001	161.629868	0.000191	103.706551	0.000191
4485.331001	163.851452	0.000191	101.564121	0.000191
4488.359001	160.598469	0.000191	103.309822	0.000191
4491.259000	162.344170	0.000191	102.675152	0.000191
4494.259000	158.773136	0.000191	101.326180	0.000191
4497.309000	159.963799	0.000191	103.309822	0.000191
4500.267000	159.249496	0.000191	101.802063	0.000191
4503.252000	155.440998	0.000191	103.944492	0.000191
4506.248000	153.695297	0.000191	99.818420	0.000191
4509.251000	155.758095	0.000191	100.294781	0.000191
4512.272001	152.584267	0.000191	100.929451	0.000191
4515.252001	146.871281	0.000191	101.247025	0.000191
4518.267000	144.649696	0.000191	99.183750	0.000191
4521.335001	145.919037	0.000191	101.247025	0.000191
4524.268001	146.871281	0.000191	103.468609	0.000191
4527.259000	151.314926	0.000191	103.071880	0.000191
4530.264000	150.918198	0.000191	103.151035	0.000191
4533.285000	151.473236	0.000191	101.088238	0.000191
4536.256001	148.458195	0.000191	102.675152	0.000191
4539.315001	149.013710	0.000191	103.627396	0.000191
4542.336000	144.887638	0.000191	103.706551	0.000191
4545.257000	143.697453	0.000191	105.690193	0.000191
4548.260000	140.920353	0.000191	105.293465	0.000191
4551.348001	140.206051	0.000191	105.769825	0.000191
4554.249001	137.984467	0.000191	104.500008	0.000191
4557.330000	135.921669	0.000191	104.658794	0.000191
4560.261001	135.128212	0.000191	103.786182	0.000191
4563.331001	134.969425	0.000191	103.230667	0.000191
4566.257001	135.604095	0.000191	104.579639	0.000191
4569.260000	138.302040	0.000191	105.690193	0.000191
4572.327000	140.443993	0.000191	104.341221	0.000191
4575.356000	142.745209	0.000191	106.166553	0.000191
4578.256001	141.713810	0.000191	104.817581	0.000191
4581.302000	142.269325	0.000191	106.960011	0.000191
4584.252000	144.173336	0.000191	104.103279	0.000191
4587.344000	143.538666	0.000191	102.754307	0.000191
4590.252001	144.649696	0.000191	103.071880	0.000191
4593.260001	142.507267	0.000191	102.595520	0.000191
4596.260000	132.192326	0.000191	101.484966	0.000191
4599.257000	125.209522	0.000191	104.262066	0.000191
4602.252000	125.289154	0.000191	104.024124	0.000191
4605.252000	127.431107	0.000191	105.134678	0.000191
4608.260001	129.573536	0.000191	102.754307	0.000191
4611.303000	129.732323	0.000191	102.278423	0.000191
4614.352001	129.811954	0.000191	102.516365	0.000191
4617.265001	128.462982	0.000191	103.627396	0.000191
4620.327000	129.256439	0.000191	102.595520	0.000191
4623.253000	129.970264	0.000191	102.278423	0.000191
4626.260000	132.430267	0.000191	99.580479	0.000191
4629.265001	135.842037	0.000191	99.024963	0.000191
4632.253001	137.111855	0.000191	98.311138	0.000191
4635.261001	137.191010	0.000191	99.104595	0.000191
4638.261001	137.191010	0.000191	102.119637	0.000191
4641.321001	138.777924	0.000191	103.786182	0.000191
4644.265001	141.634655	0.000191	102.040482	0.000191
4647.320000	142.983150	0.000191	102.040482	0.000191
4650.263000	147.823524	0.000191	103.627396	0.000191
4653.316000	147.823524	0.000191	103.944492	0.000191
4656.254001	145.919037	0.000191	102.040482	0.000191
4659.255000	137.191010	0.000191	102.754307	0.000191
4662.266000	136.715126	0.000191	103.468609	0.000191
4665.254001	139.492226	0.000191	102.992249	0.000191
4668.254001	135.445309	0.000191	102.278423	0.000191
4671.271000	136.000824	0.000191	102.675152	0.000191
4674.254001	136.476707	0.000191	103.309822	0.000191
4677.254001	136.318398	0.000191	103.468609	0.000191
4680.362000	135.286522	0.000191	104.658794	0.000191
4683.364001	135.128212	0.000191	103.786182	0.000191
4686.359000	134.413910	0.000191	102.516365	0.000191
4689.353001	136.159611	0.000191	104.262066	0.000191
4692.263000	131.795597	0.000191	106.721592	0.000191
4695.302001	133.779240	0.000191	102.198792	0.000191
4698.256000	134.255123	0.000191	103.151035	0.000191
4701.281000	131.953907	0.000191	100.453568	0.000191
4704.269000	131.478024	0.000191	101.484966	0.000191
4707.320001	132.826996	0.000191	101.960850	0.000191
4710.357001	133.779240	0.000191	101.008606	0.000191
4713.257000	135.683250	0.000191	101.643753	0.000191
4716.357001	137.111855	0.000191	99.501324	0.000191
4719.270000	134.334278	0.000191	98.549080	0.000191
4722.270000	133.620453	0.000191	99.818420	0.000191
4725.350000	134.096336	0.000191	98.945808	0.000191
4728.326000	134.096336	0.000191	100.453568	0.000191
4731.329000	132.350636	0.000191	98.628235	0.000191
4734.323000	130.605412	0.000191	97.596836	0.000191
4737.297000	128.304195	0.000191	99.421692	0.000191
4740.284000	125.447464	0.000191	97.993565	0.000191
4743.266000	124.733639	0.000191	98.628235	0.000191
4746.330001	126.796436	0.000191	99.501324	0.000191
4749.259000	126.399708	0.000191	100.532722	0.000191
4752.307000	130.605412	0.000191	98.469925	0.000191
4755.272000	131.160450	0.000191	98.628235	0.000191
4758.364000	131.874752	0.000191	99.104595	0.000191
4761.365000	132.668209	0.000191	97.914410	0.000191
4764.290000	131.081295	0.000191	98.628235	0.000191
4767.266000	127.114010	0.000191	97.596836	0.000191
4770.350000	128.066254	0.000191	98.945808	0.000191
4773.269001	126.320553	0.000191	99.739265	0.000191
4776.262000	127.351952	0.000191	95.692348	0.000191
4779.278000	127.114010	0.000191	96.009922	0.000191
4782.319000	128.383350	0.000191	97.200108	0.000191
4785.328000	122.749996	0.000191	97.120953	0.000191
4788.269000	120.052052	0.000191	99.501324	0.000191
4791.304000	119.734478	0.000191	98.311138	0.000191
4794.333001	117.037010	0.000191	98.549080	0.000191
4797.266000	116.005611	0.000191	99.580479	0.000191
4800.265001	115.846825	0.000191	98.311138	0.000191
4803.263000	116.322708	0.000191	97.041321	0.000191
4806.278000	119.179440	0.000191	97.279739	0.000191
4809.332000	120.607567	0.000191	96.009922	0.000191
4812.267000	120.052052	0.000191	99.501324	0.000191
4815.316000	118.861866	0.000191	96.406651	0.000191
4818.370000	118.385983	0.000191	95.692348	0.000191
4821.268001	116.719437	0.000191	96.009922	0.000191
4824.271001	113.624763	0.000191	95.692348	0.000191
4827.263000	109.578323	0.000191	94.660950	0.000191
4830.309000	111.086082	0.000191	95.057678	0.000191
4833.271000	115.370464	0.000191	97.279739	0.000191
4836.342000	113.148880	0.000191	93.947124	0.000191
4839.256001	111.086082	0.000191	94.105434	0.000191
4842.356000	107.515049	0.000191	94.660950	0.000191
4845.264000	107.991409	0.000191	96.168709	0.000191
4848.272001	106.801224	0.000191	96.009922	0.000191
4851.324001	106.563282	0.000191	95.771980	0.000191
4854.273000	106.166553	0.000191	94.581795	0.000191
4857.290000	109.101963	0.000191	96.009922	0.000191
4860.311000	103.706551	0.000191	96.168709	0.000191
4863.270000	99.024963	0.000191	97.914410	0.000191
4866.282001	103.071880	0.000191	97.993565	0.000191
4869.323000	105.611038	0.000191	98.311138	0.000191
4872.277000	107.991409	0.000191	98.787022	0.000191
4875.273000	110.530567	0.000191	97.755623	0.000191
4878.307001	110.371780	0.000191	100.294781	0.000191
4881.352000	109.657478	0.000191	98.945808	0.000191
4884.274000	108.784866	0.000191	98.628235	0.000191
4887.331000	108.229351	0.000191	102.516365	0.000191
4890.319000	102.675152	0.000191	99.263382	0.000191
4893.272001	98.787022	0.000191	97.676468	0.000191
4896.268001	100.056839	0.000191	95.613194	0.000191
4899.371001	97.914410	0.000191	95.613194	0.000191
4902.337001	97.120953	0.000191	96.009922	0.000191
4905.267000	98.469925	0.000191	98.152351	0.000191
4908.342000	97.755623	0.000191	100.532722	0.000191
4911.335001	98.073196	0.000191	97.676468	0.000191
4914.339000	96.089077	0.000191	98.073196	0.000191
4917.339000	96.962166	0.000191	97.438049	0.000191
4920.355000	96.724224	0.000191	97.596836	0.000191
4923.323000	100.691509	0.000191	98.628235	0.000191
4926.273000	100.611877	0.000191	99.421692	0.000191
4929.268001	99.421692	0.000191	100.532722	0.000191
4932.368001	98.787022	0.000191	101.722908	0.000191
4935.272000	98.707867	0.000191	98.707867	0.000191
4938.343000	100.453568	0.000191	101.326180	0.000191
4941.276000	100.691509	0.000191	103.944492	0.000191
4944.276000	101.802063	0.000191	98.231506	0.000191
4947.294001	102.198792	0.000191	97.596836	0.000191
4950.274001	99.580479	0.000191	96.962166	0.000191
4953.281001	95.295620	0.000191	97.120953	0.000191
4956.274001	95.771980	0.000191	97.914410	0.000191
4959.262000	94.740582	0.000191	99.739265	0.000191
4962.349000	93.391609	0.000191	99.104595	0.000191
4965.277000	94.423008	0.000191	96.724224	0.000191
4968.270000	95.454407	0.000191	98.549080	0.000191
4971.333000	97.676468	0.000191	98.469925	0.000191
4974.266000	99.104595	0.000191	100.056839	0.000191
4977.316001	97.914410	0.000191	99.421692	0.000191
4980.378001	99.501324	0.000191	102.595520	0.000191
4983.328000	100.056839	0.000191	96.724224	0.000191
4986.278000	96.168709	0.000191	95.454407	0.000191
4989.328000	93.629551	0.000191	94.185066	0.000191
4992.275001	90.693665	0.000191	94.502163	0.000191
4995.274000	89.424324	0.000191	94.185066	0.000191
4998.336000	88.947964	0.000191	96.168709	0.000191
5001.275001	90.138149	0.000191	96.009922	0.000191
5004.278000	89.979362	0.000191	97.676468	0.000191
5007.295001	86.408806	0.000191	97.200108	0.000191
5010.299000	86.408806	0.000191	99.104595	0.000191
5013.303000	85.536194	0.000191	96.962166	0.000191
5016.282000	85.139465	0.000191	99.024963	0.000191
5019.361000	82.838249	0.000191	101.008606	0.000191
5022.299000	81.886005	0.000191	100.056839	0.000191
5025.357001	80.934238	0.000191	99.977207	0.000191
5028.378001	81.648064	0.000191	100.611877	0.000191
5031.378001	79.108906	0.000191	101.008606	0.000191
5034.354001	78.474236	0.000191	101.484966	0.000191
5037.374000	80.378723	0.000191	102.992249	0.000191
5040.271000	80.219936	0.000191	100.453568	0.000191
5043.271000	81.013393	0.000191	100.929451	0.000191
5046.363000	82.997036	0.000191	102.040482	0.000191
5049.272001	81.886005	0.000191	98.945808	0.000191
5052.280000	83.076191	0.000191	99.104595	0.000191
5055.348001	80.616665	0.000191	98.469925	0.000191
5058.305001	77.204895	0.000191	99.421692	0.000191
5061.355000	76.649380	0.000191	100.929451	0.000191
5064.320000	76.649380	0.000191	101.167393	0.000191
5067.272000	76.808167	0.000191	101.167393	0.000191
5070.352000	77.998352	0.000191	100.453568	0.000191
5073.280000	76.173019	0.000191	97.596836	0.000191
5076.343000	76.569748	0.000191	97.755623	0.000191
5079.280000	76.331806	0.000191	97.517681	0.000191
5082.365000	77.998352	0.000191	98.628235	0.000191
5085.266000	78.870964	0.000191	99.024963	0.000191
5088.327000	79.505634	0.000191	97.041321	0.000191
5091.353000	78.553867	0.000191	96.009922	0.000191
5094.340000	80.378723	0.000191	96.009922	0.000191
5097.328000	82.362366	0.000191	95.930767	0.000191
5100.354000	81.727695	0.000191	97.200108	0.000191
5103.326001	80.457878	0.000191	95.613194	0.000191
5106.292000	82.600307	0.000191	98.549080	0.000191
5109.280000	81.092548	0.000191	97.596836	0.000191
5112.284000	77.918720	0.000191	97.755623	0.000191
5115.278000	77.521992	0.000191	97.279739	0.000191
5118.279000	75.379562	0.000191	96.485806	0.000191
5121.279000	74.506950	0.000191	96.168709	0.000191
5124.292000	73.951435	0.000191	94.502163	0.000191
5127.313001	74.189377	0.000191	98.549080	0.000191
5130.284000	73.078823	0.000191	98.231506	0.000191
5133.296000	71.967793	0.000191	95.454407	0.000191
5136.375001	73.554707	0.000191	93.947124	0.000191
5139.382000	74.824524	0.000191	94.423008	0.000191
5142.349000	77.204895	0.000191	91.883850	0.000191
5145.357000	75.141621	0.000191	91.963482	0.000191
5148.388000	74.110222	0.000191	92.280579	0.000191
5151.284000	78.315449	0.000191	92.518520	0.000191
5154.283000	77.918720	0.000191	94.105434	0.000191
5157.285000	76.490593	0.000191	94.978523	0.000191
5160.358000	77.680779	0.000191	92.201424	0.000191
5163.289001	78.633022	0.000191	92.994881	0.000191
5166.276000	76.490593	0.000191	93.788338	0.000191
5169.285000	76.093864	0.000191	91.170025	0.000191
5172.308001	77.521992	0.000191	90.138149	0.000191
5175.288000	75.459194	0.000191	90.058994	0.000191
5178.288000	76.411438	0.000191	90.376091	0.000191
5181.338001	77.918720	0.000191	91.645908	0.000191
5184.289001	79.188538	0.000191	90.772820	0.000191
5187.288001	82.521152	0.000191	91.725063	0.000191
5190.335001	83.552551	0.000191	93.470764	0.000191
5193.288000	84.346008	0.000191	92.042637	0.000191
5196.352000	80.457878	0.000191	91.883850	0.000191
5199.352000	84.425163	0.000191	91.487122	0.000191
5202.349000	85.139465	0.000191	91.249180	0.000191
5205.287001	84.028435	0.000191	91.883850	0.000191
5208.286001	82.917881	0.000191	90.534878	0.000191
5211.271001	80.695820	0.000191	90.455723	0.000191
5214.287001	82.203579	0.000191	89.979362	0.000191
5217.291000	84.980679	0.000191	91.407967	0.000191
5220.334000	83.393764	0.000191	92.756939	0.000191
5223.375000	83.552551	0.000191	94.105434	0.000191
5226.289001	82.997036	0.000191	91.249180	0.000191
5229.344000	83.711338	0.000191	89.027596	0.000191
5232.289001	82.362366	0.000191	89.662266	0.000191
5235.306000	81.013393	0.000191	89.106750	0.000191
5238.293001	81.727695	0.000191	88.868809	0.000191
5241.343000	78.712177	0.000191	88.947964	0.000191
5244.298000	78.395081	0.000191	88.710022	0.000191
5247.311000	76.569748	0.000191	89.741421	0.000191
5250.286000	75.300407	0.000191	90.058994	0.000191
5253.299000	74.427795	0.000191	87.202263	0.000191
5256.315001	73.951435	0.000191	86.647224	0.000191
5259.294001	73.475552	0.000191	86.250496	0.000191
5262.300001	75.062466	0.000191	86.567593	0.000191
5265.284000	74.427795	0.000191	89.582634	0.000191
5268.292001	75.617981	0.000191	87.440681	0.000191
5271.295000	76.887321	0.000191	87.361050	0.000191
5274.288000	79.902363	0.000191	88.154507	0.000191
5277.291000	81.330967	0.000191	87.757778	0.000191
5280.288000	76.014709	0.000191	87.440681	0.000191
5283.355000	74.665737	0.000191	86.964321	0.000191
5286.308001	74.348164	0.000191	85.457039	0.000191
5289.362000	74.506950	0.000191	87.519836	0.000191
5292.300001	74.586105	0.000191	85.457039	0.000191
5295.338000	71.571064	0.000191	84.663582	0.000191
5298.300000	71.095181	0.000191	85.853767	0.000191
5301.299000	71.174335	0.000191	84.663582	0.000191
5304.338000	72.285366	0.000191	85.377407	0.000191
5307.336000	72.364521	0.000191	83.631706	0.000191
5310.338001	72.920036	0.000191	83.076191	0.000191
5313.329000	75.300407	0.000191	83.631706	0.000191
5316.309001	73.872280	0.000191	84.425163	0.000191
5319.304001	74.427795	0.000191	86.647224	0.000191
5322.292000	67.841721	0.000191	87.361050	0.000191
5325.300000	65.143776	0.000191	87.916565	0.000191
5328.288000	64.112377	0.000191	87.995720	0.000191
5331.296000	65.064621	0.000191	88.154507	0.000191
5334.295000	64.826679	0.000191	88.868809	0.000191
5337.333001	67.524624	0.000191	89.582634	0.000191
5340.284000	69.428635	0.000191	90.931606	0.000191
5343.348001	69.269848	0.000191	87.519836	0.000191
5346.395000	70.777607	0.000191	86.567593	0.000191
5349.387000	68.635178	0.000191	86.170864	0.000191
5352.295000	67.127895	0.000191	84.980679	0.000191
5355.313001	68.635178	0.000191	85.853767	0.000191
5358.372001	70.460033	0.000191	86.647224	0.000191
5361.317000	71.333122	0.000191	86.091709	0.000191
5364.293001	71.650219	0.000191	86.567593	0.000191
5367.293001	73.554707	0.000191	87.678623	0.000191
5370.384000	73.792648	0.000191	88.234138	0.000191
5373.305000	72.126579	0.000191	91.566753	0.000191
5376.393000	70.142937	0.000191	88.472080	0.000191
5379.352000	73.078823	0.000191	87.757778	0.000191
5382.303000	73.634338	0.000191	88.154507	0.000191
5385.359000	71.412277	0.000191	87.361050	0.000191
5388.311000	69.269848	0.000191	87.916565	0.000191
5391.379001	66.969109	0.000191	85.694981	0.000191
5394.344000	68.873119	0.000191	84.742737	0.000191
5397.330001	70.618820	0.000191	85.060310	0.000191
5400.297000	71.333122	0.000191	83.711338	0.000191
5403.396000	71.095181	0.000191	84.583950	0.000191
5406.293000	72.285366	0.000191	84.504795	0.000191
5409.300000	73.792648	0.000191	83.631706	0.000191
5412.321000	71.967793	0.000191	82.917881	0.000191
5415.296000	71.333122	0.000191	82.521152	0.000191
5418.304000	73.395920	0.000191	83.076191	0.000191
5421.380001	74.506950	0.000191	83.711338	0.000191
5424.301000	77.601624	0.000191	84.346008	0.000191
5427.341000	79.664421	0.000191	83.552551	0.000191
5430.301001	76.887321	0.000191	84.346008	0.000191
5433.289001	76.014709	0.000191	83.869648	0.000191
5436.297000	78.077507	0.000191	84.346008	0.000191
5439.368001	78.395081	0.000191	85.615349	0.000191
5442.386001	77.998352	0.000191	86.567593	0.000191
5445.296000	76.569748	0.000191	85.694981	0.000191
5448.295001	78.474236	0.000191	86.488438	0.000191
5451.362000	79.347324	0.000191	86.726379	0.000191
5454.302000	80.616665	0.000191	89.662266	0.000191
5457.300000	83.472919	0.000191	88.868809	0.000191
5460.300000	85.932922	0.000191	89.185905	0.000191
5463.295000	87.757778	0.000191	87.916565	0.000191
5466.308001	87.598991	0.000191	88.551235	0.000191
5469.296000	85.457039	0.000191	87.440681	0.000191
5472.300001	82.362366	0.000191	86.964321	0.000191
5475.344001	83.234978	0.000191	87.440681	0.000191
5478.300000	83.234978	0.000191	88.551235	0.000191
5481.295000	83.155823	0.000191	89.662266	0.000191
5484.295000	81.727695	0.000191	89.424324	0.000191
5487.296000	82.203579	0.000191	89.662266	0.000191
5490.292000	82.124424	0.000191	90.217781	0.000191
5493.303000	82.997036	0.000191	92.280579	0.000191
5496.353001	81.568909	0.000191	91.645908	0.000191
5499.341001	77.839565	0.000191	89.106750	0.000191
5502.292000	76.649380	0.000191	89.424324	0.000191
5505.301000	77.839565	0.000191	89.106750	0.000191
5508.304000	78.712177	0.000191	89.185905	0.000191
5511.351000	76.569748	0.000191	87.598991	0.000191
5514.330000	77.601624	0.000191	89.106750	0.000191
5517.315001	78.077507	0.000191	88.234138	0.000191
5520.309001	77.998352	0.000191	90.693665	0.000191
5523.302000	77.363205	0.000191	89.424324	0.000191
5526.379001	74.665737	0.000191	86.964321	0.000191
5529.303000	74.903679	0.000191	83.393764	0.000191
5532.297000	75.459194	0.000191	83.631706	0.000191
5535.372001	74.506950	0.000191	81.727695	0.000191
5538.291000	74.586105	0.000191	82.679462	0.000191
5541.352000	75.379562	0.000191	78.633022	0.000191
5544.298001	74.427795	0.000191	80.457878	0.000191
5547.327001	77.601624	0.000191	81.172180	0.000191
5550.299000	76.966476	0.000191	82.521152	0.000191
5553.296000	78.870964	0.000191	82.124424	0.000191
5556.312000	98.152351	0.000191	81.013393	0.000191
5559.409000	98.707867	0.000191	80.457878	0.000191
5562.310000	93.947124	0.000191	81.568909	0.000191
5565.314000	96.644592	0.000191	80.219936	0.000191
5568.302000	98.469925	0.000191	79.426479	0.000191
5571.306000	97.676468	0.000191	80.695820	0.000191
5574.310000	101.643753	0.000191	80.140781	0.000191
5577.303000	105.452251	0.000191	81.648064	0.000191
5580.397000	108.229351	0.000191	82.600307	0.000191
5583.303000	105.769825	0.000191	80.457878	0.000191
5586.307000	107.118320	0.000191	81.489277	0.000191
5589.310000	107.515049	0.000191	78.870964	0.000191
5592.311000	107.277107	0.000191	78.633022	0.000191
5595.310000	103.547764	0.000191	79.029751	0.000191
5598.327001	104.658794	0.000191	79.347324	0.000191
5601.298001	103.071880	0.000191	79.664421	0.000191
5604.320001	107.594681	0.000191	81.330967	0.000191
5607.362000	108.626080	0.000191	77.918720	0.000191
5610.303000	110.292625	0.000191	79.823208	0.000191
5613.302000	110.689354	0.000191	81.489277	0.000191
5616.327001	107.356739	0.000191	80.219936	0.000191
5619.393001	107.118320	0.000191	79.585266	0.000191
5622.307000	107.277107	0.000191	81.172180	0.000191
5625.311000	109.340382	0.000191	79.585266	0.000191
5628.368001	115.846825	0.000191	79.108906	0.000191
5631.313001	115.291309	0.000191	77.046108	0.000191
5634.309000	115.370464	0.000191	76.966476	0.000191
5637.310000	108.467293	0.000191	77.125263	0.000191
5640.305000	111.720753	0.000191	76.649380	0.000191
5643.313001	114.656639	0.000191	76.966476	0.000191
5646.305001	110.530567	0.000191	77.363205	0.000191
5649.401000	112.196636	0.000191	77.442837	0.000191
5652.314001	106.960011	0.000191	80.061150	0.000191
5655.306000	105.531406	0.000191	79.981995	0.000191
5658.307000	104.737949	0.000191	78.395081	0.000191
5661.304000	100.929451	0.000191	77.680779	0.000191
5664.319000	106.166553	0.000191	77.839565	0.000191
5667.316000	103.071880	0.000191	79.029751	0.000191
5670.338001	104.262066	0.000191	76.173019	0.000191
5673.313001	106.086922	0.000191	78.315449	0.000191
5676.316001	105.848980	0.000191	80.061150	0.000191
5679.312001	106.642437	0.000191	79.981995	0.000191
5682.397001	104.658794	0.000191	79.585266	0.000191
5685.314000	102.278423	0.000191	78.395081	0.000191
5688.404000	102.198792	0.000191	76.808167	0.000191
5691.317000	101.722908	0.000191	77.363205	0.000191
5694.306000	102.992249	0.000191	76.808167	0.000191
5697.417000	102.992249	0.000191	77.998352	0.000191
5700.314000	103.468609	0.000191	77.046108	0.000191
5703.322001	102.675152	0.000191	76.411438	0.000191
5706.375001	104.976368	0.000191	76.649380	0.000191
5709.317000	105.452251	0.000191	76.014709	0.000191
5712.392000	109.657478	0.000191	76.887321	0.000191
5715.371000	107.118320	0.000191	77.046108	0.000191
5718.318000	107.039165	0.000191	76.411438	0.000191
5721.340000	105.293465	0.000191	76.887321	0.000191
5724.314000	104.024124	0.000191	75.697136	0.000191
5727.315001	103.151035	0.000191	74.427795	0.000191
5730.378001	104.500008	0.000191	72.046947	0.000191
5733.324001	102.992249	0.000191	73.554707	0.000191
5736.378000	101.960850	0.000191	72.126579	0.000191
5739.319000	103.309822	0.000191	74.427795	0.000191
5742.327001	100.929451	0.000191	73.475552	0.000191
5745.312000	100.135994	0.000191	72.682095	0.000191
5748.333000	102.278423	0.000191	74.031067	0.000191
5751.337000	103.309822	0.000191	74.189377	0.000191
5754.316001	101.564121	0.000191	73.316765	0.000191
5757.315001	101.088238	0.000191	71.888638	0.000191
5760.324001	101.484966	0.000191	73.078823	0.000191
5763.320000	96.644592	0.000191	74.824524	0.000191
5766.329000	92.042637	0.000191	75.459194	0.000191
5769.345000	94.185066	0.000191	74.506950	0.000191
5772.416000	94.105434	0.000191	72.840881	0.000191
5775.401000	94.978523	0.000191	70.142937	0.000191
5778.394001	97.279739	0.000191	71.412277	0.000191
5781.318000	97.279739	0.000191	73.157978	0.000191
5784.319001	97.914410	0.000191	73.078823	0.000191
5787.335001	100.056839	0.000191	69.984150	0.000191
5790.337000	101.564121	0.000191	71.333122	0.000191
5793.357000	99.501324	0.000191	69.666576	0.000191
5796.316000	101.247025	0.000191	69.587421	0.000191
5799.326000	102.675152	0.000191	69.031906	0.000191
5802.392000	106.642437	0.000191	68.318081	0.000191
5805.322001	108.070564	0.000191	68.476391	0.000191
5808.334001	105.611038	0.000191	68.793964	0.000191
5811.322001	103.786182	0.000191	68.397236	0.000191
5814.318000	102.198792	0.000191	67.921352	0.000191
5817.413000	101.802063	0.000191	71.809006	0.000191
5820.322000	101.643753	0.000191	74.110222	0.000191
5823.425000	99.104595	0.000191	73.078823	0.000191
5826.393001	97.993565	0.000191	74.031067	0.000191
5829.413000	96.565437	0.000191	72.523308	0.000191
5832.321000	94.581795	0.000191	70.539665	0.000191
5835.340001	95.216465	0.000191	68.635178	0.000191
5838.335001	96.247864	0.000191	69.587421	0.000191
5841.377000	96.009922	0.000191	70.618820	0.000191
5844.326000	101.564121	0.000191	72.285366	0.000191
5847.418000	105.690193	0.000191	73.157978	0.000191
5850.419001	107.832623	0.000191	75.538349	0.000191
5853.318000	102.040482	0.000191	74.189377	0.000191
5856.330000	99.739265	0.000191	74.665737	0.000191
5859.323001	102.595520	0.000191	70.539665	0.000191
5862.394001	108.546925	0.000191	67.365837	0.000191
5865.324001	107.753468	0.000191	67.524624	0.000191
5868.334000	99.739265	0.000191	66.334438	0.000191
5871.336000	97.517681	0.000191	66.651535	0.000191
5874.333000	99.104595	0.000191	67.841721	0.000191
5877.322001	99.739265	0.000191	70.142937	0.000191
5880.400001	100.770664	0.000191	69.111538	0.000191
5883.399000	99.580479	0.000191	68.793964	0.000191
5886.399001	100.215149	0.000191	69.587421	0.000191
5889.421000	100.453568	0.000191	69.825363	0.000191
5892.371000	99.818420	0.000191	71.015549	0.000191
5895.334000	100.691509	0.000191	72.999191	0.000191
5898.329000	100.215149	0.000191	71.491909	0.000191
5901.325000	101.326180	0.000191	71.888638	0.000191
5904.409000	104.103279	0.000191	69.904995	0.000191
5907.326001	97.596836	0.000191	65.143776	0.000191
5910.327001	93.947124	0.000191	66.016865	0.000191
5913.336000	96.168709	0.000191	67.444992	0.000191
5916.328001	94.264221	0.000191	67.127895	0.000191
5919.357000	94.978523	0.000191	66.413593	0.000191
5922.352000	93.708706	0.000191	67.048264	0.000191
5925.331000	95.534039	0.000191	66.334438	0.000191
5928.329000	96.089077	0.000191	65.858078	0.000191
5931.343000	96.644592	0.000191	64.033222	0.000191
5934.325000	97.279739	0.000191	64.985466	0.000191
5937.337000	95.534039	0.000191	66.016865	0.000191
5940.399001	95.454407	0.000191	64.826679	0.000191
5943.330001	93.947124	0.000191	62.128735	0.000191
5946.426000	92.677307	0.000191	64.112377	0.000191
5949.359000	93.550396	0.000191	65.858078	0.000191
5952.334001	93.074036	0.000191	64.033222	0.000191
5955.410000	88.551235	0.000191	65.302563	0.000191
5958.338001	83.949280	0.000191	68.556023	0.000191
5961.360001	83.155823	0.000191	68.159294	0.000191
5964.326001	86.012077	0.000191	69.269848	0.000191
5967.340001	83.949280	0.000191	68.000507	0.000191
5970.359000	80.061150	0.000191	68.159294	0.000191
5973.327000	82.441521	0.000191	69.587421	0.000191
5976.327001	86.726379	0.000191	69.587421	0.000191
5979.331000	85.377407	0.000191	69.111538	0.000191
5982.330000	83.393764	0.000191	70.142937	0.000191
5985.384000	84.108067	0.000191	71.174335	0.000191
5988.393001	84.425163	0.000191	72.126579	0.000191
5991.335001	83.234978	0.000191	70.460033	0.000191
5994.390001	84.346008	0.000191	72.126579	0.000191
5997.335001	84.504795	0.000191	72.126579	0.000191
6000.320001	85.060310	0.000191	73.316765	0.000191
6003.336000	83.869648	0.000191	73.475552	0.000191
6006.336000	82.362366	0.000191	72.285366	0.000191
6009.329000	82.997036	0.000191	76.966476	0.000191
6012.343000	80.854607	0.000191	76.331806	0.000191
6015.334001	77.998352	0.000191	73.316765	0.000191
6018.409000	75.538349	0.000191	83.234978	0.000191
6021.325000	74.824524	0.000191	88.630867	0.000191
6024.392000	81.489277	0.000191	90.138149	0.000191
6027.334000	83.155823	0.000191	94.185066	0.000191
6030.329000	76.331806	0.000191	97.517681	0.000191
6033.388000	75.697136	0.000191	100.611877	0.000191
6036.334001	75.935078	0.000191	101.326180	0.000191
6039.390001	76.173019	0.000191	104.500008	0.000191
6042.357001	77.125263	0.000191	104.579639	0.000191
6045.413001	79.664421	0.000191	107.673836	0.000191
6048.394001	79.505634	0.000191	106.801224	0.000191
6051.337000	77.521992	0.000191	107.673836	0.000191
6054.333000	76.490593	0.000191	108.229351	0.000191
6057.403000	82.362366	0.000191	107.753468	0.000191
6060.362000	82.203579	0.000191	104.817581	0.000191
6063.340000	78.870964	0.000191	104.182911	0.000191
6066.344000	79.029751	0.000191	102.437210	0.000191
6069.336000	77.442837	0.000191	105.055523	0.000191
6072.363001	79.188538	0.000191	107.991409	0.000191
6075.375000	78.633022	0.000191	108.626080	0.000191
6078.400000	78.870964	0.000191	110.371780	0.000191
6081.339000	77.680779	0.000191	112.196636	0.000191
6084.338000	71.967793	0.000191	111.641121	0.000191
6087.339000	70.142937	0.000191	110.212994	0.000191
6090.343000	74.982834	0.000191	109.975052	0.000191
6093.332000	73.475552	0.000191	111.165237	0.000191
6096.331001	72.126579	0.000191	108.784866	0.000191
6099.343000	70.380878	0.000191	109.181595	0.000191
6102.335001	72.523308	0.000191	108.705235	0.000191
6105.393000	72.602463	0.000191	109.975052	0.000191
6108.400001	70.618820	0.000191	110.292625	0.000191
6111.335001	69.825363	0.000191	110.530567	0.000191
6114.438001	71.015549	0.000191	108.546925	0.000191
6117.332000	71.333122	0.000191	108.546925	0.000191
6120.414001	68.318081	0.000191	110.054207	0.000191
6123.349001	67.286205	0.000191	111.799908	0.000191
6126.333000	63.636494	0.000191	112.831306	0.000191
6129.408000	64.271164	0.000191	111.561966	0.000191
6132.341000	63.556862	0.000191	113.545609	0.000191
6135.354000	63.795280	0.000191	114.656639	0.000191
6138.407001	66.651535	0.000191	114.101124	0.000191
6141.395000	66.889477	0.000191	117.195797	0.000191
6144.446000	67.762566	0.000191	116.799068	0.000191
6147.404001	68.556023	0.000191	115.688038	0.000191
6150.395000	69.904995	0.000191	117.037010	0.000191
6153.346000	68.873119	0.000191	118.068409	0.000191
6156.343000	68.873119	0.000191	118.147564	0.000191
6159.339000	71.650219	0.000191	116.640282	0.000191
6162.396000	72.046947	0.000191	119.179440	0.000191
6165.340000	66.810322	0.000191	119.734478	0.000191
6168.415000	68.079662	0.000191	121.321392	0.000191
6171.426001	68.476391	0.000191	117.274952	0.000191
6174.347001	66.413593	0.000191	118.544292	0.000191
6177.348000	68.159294	0.000191	119.258595	0.000191
6180.396000	69.587421	0.000191	118.227196	0.000191
6183.341000	81.410122	0.000191	119.576168	0.000191
6186.387000	80.219936	0.000191	118.861866	0.000191
6189.348001	80.457878	0.000191	120.845509	0.000191
6192.371001	80.934238	0.000191	121.321392	0.000191
6195.378001	82.044792	0.000191	122.194481	0.000191
6198.333001	83.155823	0.000191	120.766354	0.000191
6201.346001	84.504795	0.000191	122.194481	0.000191
6204.342000	86.567593	0.000191	124.654007	0.000191
6207.358000	89.662266	0.000191	119.734478	0.000191
6210.358000	84.663582	0.000191	121.638966	0.000191
6213.399000	85.536194	0.000191	121.876907	0.000191
6216.349000	83.631706	0.000191	124.257278	0.000191
6219.449001	89.662266	0.000191	123.305511	0.000191
6222.347000	88.868809	0.000191	122.353268	0.000191
6225.343000	83.234978	0.000191	123.702240	0.000191
6228.339000	83.234978	0.000191	125.844193	0.000191
6231.343000	84.028435	0.000191	126.399708	0.000191
6234.356000	84.504795	0.000191	120.845509	0.000191
6237.347000	82.124424	0.000191	118.703079	0.000191
6240.392000	85.694981	0.000191	118.544292	0.000191
6243.416001	88.154507	0.000191	118.147564	0.000191
6246.343000	85.218620	0.000191	115.767193	0.000191
6249.347001	87.123108	0.000191	116.560650	0.000191
6252.409000	86.250496	0.000191	115.767193	0.000191
6255.349000	86.488438	0.000191	116.719437	0.000191
6258.350000	83.949280	0.000191	115.846825	0.000191
6261.350000	86.091709	0.000191	115.529251	0.000191
6264.358000	86.012077	0.000191	117.195797	0.000191
6267.357001	84.346008	0.000191	114.497852	0.000191
6270.414001	82.441521	0.000191	114.101124	0.000191
6273.404001	82.838249	0.000191	113.148880	0.000191
6276.399001	85.060310	0.000191	114.101124	0.000191
6279.371001	84.108067	0.000191	114.656639	0.000191
6282.409000	82.838249	0.000191	116.799068	0.000191
6285.380000	85.853767	0.000191	117.116165	0.000191
6288.345000	84.346008	0.000191	117.750835	0.000191
6291.360001	88.234138	0.000191	119.734478	0.000191
6294.380000	87.519836	0.000191	119.020653	0.000191
6297.355000	85.932922	0.000191	116.878223	0.000191
6300.454000	82.124424	0.000191	114.497852	0.000191
6303.380001	87.202263	0.000191	109.260750	0.000191
6306.448001	84.901524	0.000191	104.817581	0.000191
6309.352000	85.218620	0.000191	101.802063	0.000191
6312.427001	87.440681	0.000191	101.960850	0.000191
6315.353001	88.392448	0.000191	100.770664	0.000191
6318.340000	85.694981	0.000191	102.595520	0.000191
6321.456001	90.058994	0.000191	104.658794	0.000191
6324.419001	86.567593	0.000191	105.293465	0.000191
6327.352001	86.726379	0.000191	105.611038	0.000191
6330.344000	84.742737	0.000191	106.007767	0.000191
6333.360000	85.853767	0.000191	107.039165	0.000191
6336.356000	86.170864	0.000191	108.308506	0.000191
6339.344000	88.710022	0.000191	108.308506	0.000191
6342.345000	87.043953	0.000191	107.991409	0.000191
6345.352000	85.139465	0.000191	105.055523	0.000191
6348.427001	87.757778	0.000191	105.214310	0.000191
6351.346001	86.964321	0.000191	107.991409	0.000191
6354.419001	86.964321	0.000191	108.308506	0.000191
6357.398000	87.678623	0.000191	109.181595	0.000191
6360.404000	87.598991	0.000191	109.181595	0.000191
6363.391000	87.123108	0.000191	109.022808	0.000191
6366.353001	86.012077	0.000191	111.324024	0.000191
6369.361000	86.647224	0.000191	108.308506	0.000191
6372.417000	86.726379	0.000191	107.991409	0.000191
6375.354000	83.631706	0.000191	106.960011	0.000191
6378.375001	83.552551	0.000191	108.626080	0.000191
6381.354001	85.615349	0.000191	107.356739	0.000191
6384.353001	84.425163	0.000191	109.260750	0.000191
6387.354000	83.631706	0.000191	110.133839	0.000191
6390.354000	85.457039	0.000191	109.340382	0.000191
6393.351000	85.615349	0.000191	110.133839	0.000191
6396.417000	87.123108	0.000191	111.165237	0.000191
6399.441000	83.472919	0.000191	110.371780	0.000191
6402.350000	84.504795	0.000191	110.292625	0.000191
6405.412001	84.425163	0.000191	109.498692	0.000191
6408.360001	86.250496	0.000191	109.498692	0.000191
6411.351000	89.662266	0.000191	108.229351	0.000191
6414.343000	84.901524	0.000191	106.245708	0.000191
6417.400000	86.726379	0.000191	108.864021	0.000191
6420.434000	85.377407	0.000191	108.864021	0.000191
6423.426001	88.868809	0.000191	109.340382	0.000191
6426.426001	89.741421	0.000191	111.324024	0.000191
6429.380000	87.678623	0.000191	111.165237	0.000191
6432.365000	88.075352	0.000191	112.593365	0.000191
6435.439001	87.043953	0.000191	113.783550	0.000191
6438.353000	82.441521	0.000191	113.704395	0.000191
6441.361000	82.679462	0.000191	112.752151	0.000191
6444.361000	85.615349	0.000191	113.624763	0.000191
6447.359000	88.551235	0.000191	111.244392	0.000191
6450.454000	84.187222	0.000191	112.117481	0.000191
6453.363000	86.647224	0.000191	113.069725	0.000191
6456.346001	87.598991	0.000191	112.117481	0.000191
6459.354001	87.678623	0.000191	114.339066	0.000191
6462.351001	88.154507	0.000191	113.148880	0.000191
6465.363000	86.091709	0.000191	113.624763	0.000191
6468.354000	84.108067	0.000191	111.720753	0.000191
6471.367001	80.219936	0.000191	112.196636	0.000191
6474.375000	79.585266	0.000191	112.831306	0.000191
6477.367001	81.489277	0.000191	112.593365	0.000191
6480.355000	80.457878	0.000191	112.514210	0.000191
6483.438001	80.457878	0.000191	113.704395	0.000191
6486.380001	78.474236	0.000191	114.497852	0.000191
6489.416000	82.203579	0.000191	116.322708	0.000191
6492.364000	79.981995	0.000191	117.116165	0.000191
6495.368001	79.188538	0.000191	116.799068	0.000191
6498.364000	79.347324	0.000191	116.163921	0.000191
6501.425000	79.188538	0.000191	108.546925	0.000191
6504.430001	78.474236	0.000191	105.055523	0.000191
6507.439000	81.092548	0.000191	103.230667	0.000191
6510.373001	82.679462	0.000191	100.453568	0.000191
6513.357001	82.441521	0.000191	100.215149	0.000191
6516.365000	77.046108	0.000191	100.453568	0.000191
6519.368001	78.395081	0.000191	102.437210	0.000191
6522.360001	81.965637	0.000191	104.658794	0.000191
6525.410000	84.583950	0.000191	106.642437	0.000191
6528.364001	82.679462	0.000191	109.022808	0.000191
6531.357001	85.457039	0.000191	107.277107	0.000191
6534.369000	81.489277	0.000191	108.626080	0.000191
6537.435000	79.505634	0.000191	110.609722	0.000191
6540.369000	81.965637	0.000191	109.975052	0.000191
6543.361000	80.616665	0.000191	108.308506	0.000191
6546.441000	80.457878	0.000191	107.673836	0.000191
6549.358000	81.172180	0.000191	106.483650	0.000191
6552.378000	80.934238	0.000191	103.944492	0.000191
6555.373000	77.918720	0.000191	102.119637	0.000191
6558.390001	80.616665	0.000191	103.230667	0.000191
6561.362000	79.347324	0.000191	106.483650	0.000191
6564.373001	79.585266	0.000191	107.197952	0.000191
6567.374000	78.712177	0.000191	107.594681	0.000191
6570.371000	78.553867	0.000191	108.784866	0.000191
6573.362000	80.378723	0.000191	107.356739	0.000191
6576.420000	79.108906	0.000191	111.641121	0.000191
6579.367001	76.808167	0.000191	110.371780	0.000191
6582.367001	83.472919	0.000191	107.356739	0.000191
6585.421000	78.395081	0.000191	107.594681	0.000191
6588.375001	77.046108	0.000191	108.229351	0.000191
6591.370001	79.108906	0.000191	109.578323	0.000191
6594.363000	78.077507	0.000191	112.672997	0.000191
6597.366000	78.395081	0.000191	110.292625	0.000191
6600.363000	81.489277	0.000191	111.561966	0.000191
6603.425000	80.061150	0.000191	109.340382	0.000191
6606.370000	79.902363	0.000191	108.546925	0.000191
6609.362000	79.188538	0.000191	108.467293	0.000191
6612.366001	81.172180	0.000191	106.642437	0.000191
6615.462000	81.727695	0.000191	104.262066	0.000191
6618.362000	81.172180	0.000191	102.278423	0.000191
6621.362000	79.585266	0.000191	103.547764	0.000191
6624.424000	76.808167	0.000191	106.642437	0.000191
6627.383000	80.219936	0.000191	103.627396	0.000191
6630.366000	79.347324	0.000191	100.453568	0.000191
6633.363000	78.077507	0.000191	97.596836	0.000191
6636.364001	77.442837	0.000191	97.517681	0.000191
6639.400001	76.649380	0.000191	100.929451	0.000191
6642.369000	79.664421	0.000191	98.707867	0.000191
6645.385000	82.203579	0.000191	102.437210	0.000191
6648.410000	76.887321	0.000191	103.786182	0.000191
6651.460001	75.062466	0.000191	104.976368	0.000191
6654.382000	76.490593	0.000191	107.197952	0.000191
6657.365000	79.426479	0.000191	105.452251	0.000191
6660.369000	78.315449	0.000191	104.658794	0.000191
6663.431000	74.031067	0.000191	101.722908	0.000191
6666.370000	75.538349	0.000191	102.040482	0.000191
6669.365000	74.506950	0.000191	102.595520	0.000191
6672.475000	74.824524	0.000191	104.976368	0.000191
6675.367000	73.554707	0.000191	104.103279	0.000191
6678.366000	75.617981	0.000191	106.960011	0.000191
6681.375000	76.490593	0.000191	105.769825	0.000191
6684.374001	76.490593	0.000191	106.245708	0.000191
6687.375000	74.903679	0.000191	107.991409	0.000191
6690.364001	74.506950	0.000191	105.769825	0.000191
6693.364001	72.840881	0.000191	104.182911	0.000191
6696.432000	74.824524	0.000191	104.500008	0.000191
6699.369000	76.411438	0.000191	101.802063	0.000191
6702.435000	76.490593	0.000191	101.088238	0.000191
6705.369000	75.697136	0.000191	103.309822	0.000191
6708.374001	75.855923	0.000191	105.293465	0.000191
6711.424000	75.141621	0.000191	103.230667	0.000191
6714.447001	76.173019	0.000191	101.802063	0.000191
6717.378001	80.061150	0.000191	101.326180	0.000191
6720.379001	77.839565	0.000191	99.818420	0.000191
6723.432000	77.839565	0.000191	101.802063	0.000191
6726.379000	76.808167	0.000191	100.056839	0.000191
6729.400000	77.363205	0.000191	99.104595	0.000191
6732.376000	77.046108	0.000191	100.056839	0.000191
6735.433001	77.125263	0.000191	100.453568	0.000191
6738.393001	79.902363	0.000191	101.008606	0.000191
6741.442001	76.331806	0.000191	104.341221	0.000191
6744.368001	78.395081	0.000191	102.119637	0.000191
6747.377001	79.585266	0.000191	99.739265	0.000191
6750.373000	78.553867	0.000191	100.294781	0.000191
6753.376000	79.108906	0.000191	96.485806	0.000191
6756.369000	76.887321	0.000191	99.104595	0.000191
6759.435000	73.475552	0.000191	100.294781	0.000191
6762.378000	77.601624	0.000191	101.088238	0.000191
6765.448000	80.219936	0.000191	103.230667	0.000191
6768.378001	79.981995	0.000191	104.341221	0.000191
6771.429000	78.870964	0.000191	105.214310	0.000191
6774.379000	76.569748	0.000191	100.770664	0.000191
6777.368001	79.426479	0.000191	100.135994	0.000191
6780.433000	79.426479	0.000191	101.088238	0.000191
6783.400001	76.808167	0.000191	101.722908	0.000191
6786.400001	79.664421	0.000191	101.643753	0.000191
6789.391000	82.203579	0.000191	102.198792	0.000191
6792.371001	80.537510	0.000191	103.071880	0.000191
6795.379001	78.712177	0.000191	104.024124	0.000191
6798.483000	80.061150	0.000191	101.247025	0.000191
6801.377000	78.077507	0.000191	103.547764	0.000191
6804.423000	78.156662	0.000191	105.452251	0.000191
6807.398000	77.601624	0.000191	107.673836	0.000191
6810.452001	77.998352	0.000191	107.832623	0.000191
6813.384000	76.808167	0.000191	109.578323	0.000191
6816.485001	76.966476	0.000191	109.498692	0.000191
6819.381001	81.410122	0.000191	107.515049	0.000191
6822.472001	78.712177	0.000191	108.229351	0.000191
6825.476000	73.951435	0.000191	108.229351	0.000191
6828.460001	77.125263	0.000191	109.181595	0.000191
6831.377000	74.348164	0.000191	106.563282	0.000191
6834.385000	72.046947	0.000191	104.024124	0.000191
6837.390000	73.316765	0.000191	101.960850	0.000191
6840.375000	74.189377	0.000191	101.960850	0.000191
6843.375000	75.141621	0.000191	99.977207	0.000191
6846.386001	75.935078	0.000191	102.119637	0.000191
6849.391000	76.014709	0.000191	100.691509	0.000191
6852.387000	76.014709	0.000191	101.484966	0.000191
6855.453001	75.459194	0.000191	101.722908	0.000191
6858.383000	76.093864	0.000191	102.198792	0.000191
6861.434000	76.649380	0.000191	100.294781	0.000191
6864.447001	70.063305	0.000191	100.929451	0.000191
6867.488000	71.571064	0.000191	99.660110	0.000191
6870.389000	71.095181	0.000191	99.183750	0.000191
6873.393001	70.142937	0.000191	95.613194	0.000191
6876.463001	74.189377	0.000191	97.676468	0.000191
6879.384000	75.538349	0.000191	97.120953	0.000191
6882.401000	72.920036	0.000191	97.914410	0.000191
6885.465000	72.523308	0.000191	98.231506	0.000191
6888.449000	73.316765	0.000191	96.962166	0.000191
6891.378000	74.189377	0.000191	96.485806	0.000191
6894.437001	75.935078	0.000191	96.089077	0.000191
6897.483000	74.665737	0.000191	96.089077	0.000191
6900.389001	73.078823	0.000191	97.438049	0.000191
6903.415001	74.824524	0.000191	92.280579	0.000191
6906.489000	75.141621	0.000191	89.027596	0.000191
6909.386000	75.062466	0.000191	89.265537	0.000191
6912.389000	75.300407	0.000191	91.170025	0.000191
6915.413000	76.808167	0.000191	91.407967	0.000191
6918.398000	74.903679	0.000191	92.677307	0.000191
6921.456001	76.887321	0.000191	94.264221	0.000191
6924.434001	77.521992	0.000191	93.788338	0.000191
6927.405001	75.935078	0.000191	93.550396	0.000191
6930.402000	75.935078	0.000191	90.931606	0.000191
6933.406000	71.412277	0.000191	93.550396	0.000191
6936.401000	72.523308	0.000191	95.454407	0.000191
6939.444000	74.824524	0.000191	92.915249	0.000191
6942.448000	74.506950	0.000191	91.011238	0.000191
6945.397001	72.523308	0.000191	92.121792	0.000191
6948.431000	72.840881	0.000191	94.740582	0.000191
6951.389001	70.460033	0.000191	94.185066	0.000191
6954.413001	70.142937	0.000191	96.247864	0.000191
6957.431000	71.571064	0.000191	91.170025	0.000191
6960.402000	73.951435	0.000191	93.153667	0.000191
6963.468000	75.538349	0.000191	90.376091	0.000191
6966.385000	74.189377	0.000191	89.582634	0.000191
6969.393001	73.872280	0.000191	88.947964	0.000191
6972.390001	73.792648	0.000191	90.138149	0.000191
6975.385001	69.984150	0.000191	92.042637	0.000191
6978.402000	70.063305	0.000191	93.232822	0.000191
6981.394001	70.856762	0.000191	92.439365	0.000191
6984.390000	72.285366	0.000191	91.170025	0.000191
6987.393000	72.126579	0.000191	91.566753	0.000191
6990.381000	73.078823	0.000191	93.232822	0.000191
6993.402000	74.348164	0.000191	88.472080	0.000191
6996.385000	71.491909	0.000191	92.201424	0.000191
6999.393001	71.650219	0.000191	90.614510	0.000191
7002.471001	72.126579	0.000191	91.645908	0.000191
7005.398000	71.888638	0.000191	89.741421	0.000191
7008.385000	73.316765	0.000191	90.772820	0.000191
7011.489000	75.855923	0.000191	89.662266	0.000191
7014.411000	77.363205	0.000191	89.503479	0.000191
7017.407000	77.046108	0.000191	90.614510	0.000191
7020.406000	76.173019	0.000191	91.011238	0.000191
7023.385000	76.331806	0.000191	89.424324	0.000191
7026.443000	73.872280	0.000191	87.916565	0.000191
7029.448000	76.649380	0.000191	90.614510	0.000191
7032.382001	71.888638	0.000191	87.678623	0.000191
7035.487000	70.460033	0.000191	89.027596	0.000191
7038.399000	69.825363	0.000191	87.757778	0.000191
7041.388000	71.491909	0.000191	85.536194	0.000191
7044.450000	74.665737	0.000191	86.250496	0.000191
7047.400001	74.982834	0.000191	85.694981	0.000191
7050.387000	64.509106	0.000191	86.726379	0.000191
7053.391000	67.048264	0.000191	86.408806	0.000191
7056.452001	68.159294	0.000191	87.043953	0.000191
7059.391000	68.397236	0.000191	85.615349	0.000191
7062.395000	69.508266	0.000191	86.647224	0.000191
7065.412001	72.682095	0.000191	86.488438	0.000191
7068.387000	69.349480	0.000191	86.567593	0.000191
7071.392000	71.095181	0.000191	85.615349	0.000191
7074.387000	70.380878	0.000191	87.440681	0.000191
7077.445001	70.380878	0.000191	87.440681	0.000191
7080.420000	70.460033	0.000191	89.424324	0.000191
7083.496001	71.095181	0.000191	91.170025	0.000191
7086.388000	71.809006	0.000191	92.598152	0.000191
7089.393000	72.126579	0.000191	93.232822	0.000191
7092.476000	72.444153	0.000191	94.105434	0.000191
7095.385000	70.460033	0.000191	92.756939	0.000191
7098.468000	70.618820	0.000191	93.550396	0.000191
7101.396000	69.984150	0.000191	93.232822	0.000191
7104.418001	69.666576	0.000191	94.264221	0.000191
7107.392001	69.508266	0.000191	92.915249	0.000191
7110.392001	68.873119	0.000191	90.931606	0.000191
7113.451000	68.318081	0.000191	90.534878	0.000191
7116.396000	68.952751	0.000191	90.138149	0.000191
7119.435000	69.031906	0.000191	93.708706	0.000191
7122.393001	72.920036	0.000191	94.660950	0.000191
7125.449001	73.634338	0.000191	96.565437	0.000191
7128.475001	71.095181	0.000191	96.485806	0.000191
7131.394001	71.174335	0.000191	96.009922	0.000191
7134.489001	71.412277	0.000191	95.930767	0.000191
7137.493001	74.665737	0.000191	97.041321	0.000191
7140.419000	71.491909	0.000191	96.406651	0.000191
7143.398000	71.571064	0.000191	102.437210	0.000191
7146.393001	71.967793	0.000191	94.423008	0.000191
7149.385000	76.093864	0.000191	89.027596	0.000191
7152.385000	73.792648	0.000191	84.980679	0.000191
7155.402000	71.491909	0.000191	84.425163	0.000191
7158.393001	71.095181	0.000191	85.457039	0.000191
7161.390001	71.412277	0.000191	86.408806	0.000191
7164.418000	70.063305	0.000191	87.995720	0.000191
7167.498000	70.142937	0.000191	91.090393	0.000191
7170.429000	71.333122	0.000191	90.772820	0.000191
7173.459001	68.952751	0.000191	92.677307	0.000191
7176.391000	71.015549	0.000191	86.250496	0.000191
7179.399000	73.634338	0.000191	87.995720	0.000191
7182.438001	71.571064	0.000191	87.202263	0.000191
7185.496001	69.508266	0.000191	88.868809	0.000191
7188.410000	67.841721	0.000191	87.202263	0.000191
7191.393000	67.048264	0.000191	83.393764	0.000191
7194.497000	69.031906	0.000191	84.187222	0.000191
7197.400000	69.111538	0.000191	83.393764	0.000191
7200.441000	69.904995	0.000191	83.869648	0.000191
7203.395000	69.666576	0.000191	84.187222	0.000191
7206.399000	70.618820	0.000191	85.536194	0.000191
7209.503001	70.380878	0.000191	86.567593	0.000191
7212.408001	69.111538	0.000191	85.694981	0.000191
7215.456001	69.428635	0.000191	86.170864	0.000191
7218.416000	71.412277	0.000191	87.202263	0.000191
7221.400000	71.095181	0.000191	84.108067	0.000191
7224.404000	70.460033	0.000191	82.679462	0.000191
7227.409000	66.889477	0.000191	83.869648	0.000191
7230.401000	65.382195	0.000191	83.949280	0.000191
7233.467000	64.826679	0.000191	84.980679	0.000191
7236.471001	65.143776	0.000191	83.393764	0.000191
7239.392001	68.635178	0.000191	83.076191	0.000191
7242.405000	66.096020	0.000191	82.917881	0.000191
7245.450000	67.127895	0.000191	84.742737	0.000191
7248.464001	69.904995	0.000191	84.346008	0.000191
7251.464001	67.286205	0.000191	85.218620	0.000191
7254.401000	68.793964	0.000191	86.488438	0.000191
7257.456001	67.365837	0.000191	87.757778	0.000191
7260.428000	68.793964	0.000191	90.138149	0.000191
7263.507000	67.048264	0.000191	89.185905	0.000191
7266.406001	69.508266	0.000191	86.726379	0.000191
7269.406000	67.048264	0.000191	83.552551	0.000191
7272.454000	65.937710	0.000191	83.631706	0.000191
7275.486001	65.620136	0.000191	84.504795	0.000191
7278.403000	67.841721	0.000191	84.108067	0.000191
7281.469000	63.636494	0.000191	86.091709	0.000191
7284.400001	66.572380	0.000191	87.678623	0.000191
7287.408001	66.334438	0.000191	87.916565	0.000191
7290.405001	64.271164	0.000191	85.853767	0.000191
7293.413001	64.588737	0.000191	83.949280	0.000191
7296.462000	64.033222	0.000191	92.439365	0.000191
7299.409000	61.732006	0.000191	98.231506	0.000191
7302.410000	62.128735	0.000191	101.643753	0.000191
7305.427001	61.573219	0.000191	105.214310	0.000191
7308.496000	62.366676	0.000191	103.547764	0.000191
7311.510001	60.859394	0.000191	101.247025	0.000191
7314.428000	62.128735	0.000191	103.468609	0.000191
7317.460001	64.588737	0.000191	103.786182	0.000191
7320.395000	65.858078	0.000191	102.675152	0.000191
7323.399000	64.271164	0.000191	103.468609	0.000191
7326.473000	64.033222	0.000191	103.786182	0.000191
7329.439000	65.143776	0.000191	102.675152	0.000191
7332.407001	63.874435	0.000191	102.278423	0.000191
7335.486001	64.985466	0.000191	102.278423	0.000191
7338.436000	65.143776	0.000191	102.119637	0.000191
7341.404001	70.777607	0.000191	103.230667	0.000191
7344.408001	70.460033	0.000191	102.675152	0.000191
7347.404000	70.380878	0.000191	103.786182	0.000191
7350.428000	72.364521	0.000191	108.308506	0.000191
7353.512001	73.078823	0.000191	108.229351	0.000191
7356.403000	67.762566	0.000191	102.040482	0.000191
7359.500000	68.318081	0.000191	104.579639	0.000191
7362.500000	68.635178	0.000191	103.944492	0.000191
7365.404001	68.000507	0.000191	104.103279	0.000191
7368.470001	69.508266	0.000191	104.500008	0.000191
7371.472000	67.365837	0.000191	105.134678	0.000191
7374.419000	67.127895	0.000191	105.611038	0.000191
7377.407000	66.334438	0.000191	105.848980	0.000191
7380.440000	67.444992	0.000191	105.848980	0.000191
7383.406000	63.398552	0.000191	105.214310	0.000191
7386.459001	64.905834	0.000191	104.579639	0.000191
7389.420000	66.572380	0.000191	105.055523	0.000191
7392.469000	66.572380	0.000191	102.437210	0.000191
7395.419001	66.334438	0.000191	101.008606	0.000191
7398.440000	63.477707	0.000191	101.326180	0.000191
7401.412000	61.097336	0.000191	101.564121	0.000191
7404.491000	65.540504	0.000191	106.483650	0.000191
7407.433001	64.033222	0.000191	106.642437	0.000191
7410.470000	66.413593	0.000191	106.166553	0.000191
7413.409000	65.778923	0.000191	108.308506	0.000191
7416.416001	64.509106	0.000191	107.673836	0.000191
7419.425001	63.080978	0.000191	107.991409	0.000191
7422.475001	61.573219	0.000191	108.546925	0.000191
7425.454000	65.382195	0.000191	107.594681	0.000191
7428.408000	65.540504	0.000191	106.483650	0.000191
7431.445001	64.033222	0.000191	108.229351	0.000191
7434.409000	64.826679	0.000191	108.308506	0.000191
7437.438001	59.034061	0.000191	107.753468	0.000191
7440.500000	56.495380	0.000191	107.356739	0.000191
7443.475001	56.812477	0.000191	109.022808	0.000191
7446.450000	58.240604	0.000191	109.101963	0.000191
7449.408000	57.526779	0.000191	110.054207	0.000191
7452.466000	63.318920	0.000191	112.196636	0.000191
7455.433000	61.969948	0.000191	110.609722	0.000191
7458.437000	60.859394	0.000191	107.277107	0.000191
7461.438001	60.621452	0.000191	107.594681	0.000191
7464.431000	59.272480	0.000191	107.356739	0.000191
7467.405001	60.383034	0.000191	107.356739	0.000191
7470.442001	58.954906	0.000191	109.340382	0.000191
7473.414001	62.049580	0.000191	111.561966	0.000191
7476.492000	61.890793	0.000191	113.386822	0.000191
7479.475000	59.986305	0.000191	113.704395	0.000191
7482.426000	61.256123	0.000191	115.608406	0.000191
7485.460001	61.335278	0.000191	115.291309	0.000191
7488.475001	61.097336	0.000191	116.243553	0.000191
7491.422000	60.065937	0.000191	117.116165	0.000191
7494.517000	62.287521	0.000191	116.322708	0.000191
7497.417000	61.732006	0.000191	116.243553	0.000191
7500.423001	61.969948	0.000191	115.291309	0.000191
7503.485000	61.732006	0.000191	117.592525	0.000191
7506.428000	62.843037	0.000191	115.132523	0.000191
7509.415000	62.446308	0.000191	115.053368	0.000191
7512.411000	61.732006	0.000191	114.339066	0.000191
7515.411000	65.064621	0.000191	114.656639	0.000191
7518.411001	67.524624	0.000191	115.608406	0.000191
7521.518001	69.031906	0.000191	112.593365	0.000191
7524.448001	68.000507	0.000191	110.847664	0.000191
7527.465000	67.048264	0.000191	110.609722	0.000191
7530.412000	68.952751	0.000191	111.006451	0.000191
7533.412001	69.111538	0.000191	111.006451	0.000191
7536.520000	65.778923	0.000191	111.244392	0.000191
7539.414001	65.858078	0.000191	111.324024	0.000191
7542.413000	64.509106	0.000191	111.799908	0.000191
7545.414001	60.859394	0.000191	112.196636	0.000191
7548.413001	59.589577	0.000191	113.228035	0.000191
7551.485001	58.320236	0.000191	114.656639	0.000191
7554.414000	59.034061	0.000191	113.228035	0.000191
7557.505000	60.065937	0.000191	112.037849	0.000191
7560.432000	62.128735	0.000191	105.848980	0.000191
7563.416000	62.763405	0.000191	102.437210	0.000191
7566.417000	61.097336	0.000191	102.119637	0.000191
7569.468000	63.953590	0.000191	102.040482	0.000191
7572.426001	62.128735	0.000191	102.516365	0.000191
7575.423001	62.287521	0.000191	103.468609	0.000191
7578.465001	59.907150	0.000191	105.531406	0.000191
7581.498000	60.383034	0.000191	104.182911	0.000191
7584.432000	54.511738	0.000191	102.198792	0.000191
7587.427001	55.860233	0.000191	101.960850	0.000191
7590.424000	53.400707	0.000191	102.992249	0.000191
7593.428000	61.414909	0.000191	102.595520	0.000191
7596.487000	62.843037	0.000191	102.040482	0.000191
7599.428000	62.763405	0.000191	98.707867	0.000191
7602.500001	63.556862	0.000191	92.677307	0.000191
7605.495000	66.016865	0.000191	89.185905	0.000191
7608.420000	66.254807	0.000191	92.201424	0.000191
7611.426000	63.477707	0.000191	93.153667	0.000191
7614.422000	63.477707	0.000191	97.279739	0.000191
7617.421000	62.366676	0.000191	95.613194	0.000191
7620.422000	55.066776	0.000191	96.406651	0.000191
7623.426001	53.003979	0.000191	97.596836	0.000191
7626.489001	53.559494	0.000191	98.311138	0.000191
7629.475001	53.718281	0.000191	99.421692	0.000191
7632.491000	54.590893	0.000191	100.611877	0.000191
7635.427001	55.701923	0.000191	101.564121	0.000191
7638.435000	57.843876	0.000191	100.294781	0.000191
7641.430000	56.256962	0.000191	100.294781	0.000191
7644.528000	54.432106	0.000191	102.119637	0.000191
7647.428000	55.384350	0.000191	102.992249	0.000191
7650.431000	56.415749	0.000191	105.293465	0.000191
7653.416001	55.066776	0.000191	106.166553	0.000191
7656.423001	53.400707	0.000191	105.055523	0.000191
7659.428000	54.511738	0.000191	105.293465	0.000191
7662.423000	56.495380	0.000191	103.786182	0.000191
7665.477000	56.415749	0.000191	105.452251	0.000191
7668.420000	54.749680	0.000191	106.563282	0.000191
7671.444000	54.828835	0.000191	107.832623	0.000191
7674.478001	54.749680	0.000191	111.165237	0.000191
7677.494000	54.590893	0.000191	109.498692	0.000191
7680.431000	57.288837	0.000191	108.864021	0.000191
7683.448000	55.860233	0.000191	108.229351	0.000191
7686.423000	55.781078	0.000191	109.101963	0.000191
7689.428000	56.812477	0.000191	108.229351	0.000191
7692.427001	54.194164	0.000191	107.515049	0.000191
7695.432000	50.306034	0.000191	108.308506	0.000191
7698.483000	53.321552	0.000191	108.070564	0.000191
7701.429000	55.463505	0.000191	110.133839	0.000191
7704.507000	57.209206	0.000191	111.006451	0.000191
7707.436000	56.415749	0.000191	110.609722	0.000191
7710.432000	58.320236	0.000191	110.292625	0.000191
7713.421000	56.336594	0.000191	111.165237	0.000191
7716.433000	59.430790	0.000191	109.657478	0.000191
7719.433001	59.272480	0.000191	109.657478	0.000191
7722.426001	57.050419	0.000191	109.101963	0.000191
7725.498000	56.971264	0.000191	111.086082	0.000191
7728.436000	59.351635	0.000191	112.593365	0.000191
7731.429000	59.430790	0.000191	112.752151	0.000191
7734.433001	56.812477	0.000191	112.990093	0.000191
7737.424000	60.065937	0.000191	115.211678	0.000191
7740.425000	58.399391	0.000191	115.370464	0.000191
7743.436000	60.859394	0.000191	115.767193	0.000191
7746.524000	60.224724	0.000191	114.101124	0.000191
7749.479000	58.558178	0.000191	113.624763	0.000191
7752.466001	60.303879	0.000191	116.799068	0.000191
7755.436000	52.766037	0.000191	113.624763	0.000191
7758.486001	51.417065	0.000191	111.324024	0.000191
7761.428000	53.479862	0.000191	110.292625	0.000191
7764.433000	53.400707	0.000191	111.086082	0.000191
7767.428000	51.813793	0.000191	111.244392	0.000191
7770.499000	50.702763	0.000191	111.879539	0.000191
7773.523001	52.527618	0.000191	107.356739	0.000191
7776.465000	49.830151	0.000191	109.737110	0.000191
7779.463001	49.274635	0.000191	103.547764	0.000191
7782.426001	48.322392	0.000191	103.786182	0.000191
7785.509000	49.750519	0.000191	99.739265	0.000191
7788.476000	46.259594	0.000191	96.406651	0.000191
7791.422000	46.179962	0.000191	96.406651	0.000191
7794.441000	48.402023	0.000191	96.406651	0.000191
7797.442001	49.988937	0.000191	97.596836	0.000191
7800.437000	52.924347	0.000191	99.421692	0.000191
7803.491000	54.352951	0.000191	100.532722	0.000191
7806.434001	51.734161	0.000191	101.564121	0.000191
7809.496001	51.496220	0.000191	104.262066	0.000191
7812.483000	52.527618	0.000191	104.262066	0.000191
7815.430000	55.701923	0.000191	104.103279	0.000191
7818.429000	54.273319	0.000191	101.326180	0.000191
7821.487000	53.718281	0.000191	98.231506	0.000191
7824.442001	53.321552	0.000191	100.453568	0.000191
7827.505000	50.543976	0.000191	96.962166	0.000191
7830.438001	51.575851	0.000191	97.200108	0.000191
7833.430001	51.020336	0.000191	104.500008	0.000191
7836.455001	53.718281	0.000191	102.675152	0.000191
7839.442000	53.321552	0.000191	101.008606	0.000191
7842.446000	52.527618	0.000191	98.707867	0.000191
7845.443000	52.210522	0.000191	101.326180	0.000191
7848.434000	50.385666	0.000191	102.516365	0.000191
7851.438001	49.830151	0.000191	103.786182	0.000191
7854.431000	51.972580	0.000191	105.531406	0.000191
7857.434000	52.845192	0.000191	107.991409	0.000191
7860.498001	51.575851	0.000191	107.356739	0.000191
7863.526001	51.813793	0.000191	109.498692	0.000191
7866.497000	53.400707	0.000191	111.561966	0.000191
7869.538000	50.306034	0.000191	112.355423	0.000191
7872.427001	52.527618	0.000191	115.291309	0.000191
7875.467000	54.749680	0.000191	111.324024	0.000191
7878.443000	55.305195	0.000191	109.975052	0.000191
7881.430001	49.988937	0.000191	108.308506	0.000191
7884.430001	50.226879	0.000191	108.626080	0.000191
7887.500001	51.734161	0.000191	107.039165	0.000191
7890.438001	51.575851	0.000191	106.166553	0.000191
7893.435000	50.782394	0.000191	105.531406	0.000191
7896.423000	48.877907	0.000191	105.293465	0.000191
7899.447000	48.163605	0.000191	104.500008	0.000191
7902.514000	48.798752	0.000191	105.611038	0.000191
7905.430001	49.988937	0.000191	105.848980	0.000191
7908.439000	50.940704	0.000191	105.134678	0.000191
7911.490000	52.051735	0.000191	105.531406	0.000191
7914.437001	50.385666	0.000191	107.991409	0.000191
7917.426000	51.258278	0.000191	108.229351	0.000191
7920.460001	51.972580	0.000191	109.181595	0.000191
7923.451000	54.828835	0.000191	111.165237	0.000191
7926.501000	49.036694	0.000191	108.467293	0.000191
7929.439000	48.322392	0.000191	104.262066	0.000191
7932.439000	50.861549	0.000191	102.278423	0.000191
