LabVIEW Measurement	
Writer_Version	2
Reader_Version	2
Separator	Tab
Decimal_Separator	.
Multi_Headings	No
X_Columns	One
Time_Pref	Absolute
Operator	Mark
Date	2019/07/17
Time	13:05:18.4119997024536132813
***End_of_Header***	
	
Channels	4				
Samples	1	1	1	1	
Date	2019/07/17	2019/07/17	2019/07/17	2019/07/17	
Time	13:05:18.4359998703002929688	13:05:18.4609999656677246094	13:05:18.4119997024536132813	13:05:18.4159998893737792969	
X_Dimension	Time	Time	Time	Time	
X0	0.0000000000000000E+0	0.0000000000000000E+0	0.0000000000000000E+0	0.0000000000000000E+0	
Delta_X	1.000000	1.000000	1.000000	1.000000	
***End_of_Header***					
X_Value	FieldPoint\FP @ COM1\cFP-AI-110 @1\Channel 0 (Scaled)	FieldPoint\FP @ COM1\cFP-AI-110 @1\Channel 1 (Scaled)	FieldPoint\FP @ COM1\cFP-AI-110 @1\Channel 2 (Scaled)	FieldPoint\FP @ COM1\cFP-AI-110 @1\Channel 3 (Scaled)	Comment
0.000000	0.154885	0.186941	19.818003	0.068873
2.974000	0.154885	0.186941	19.818003	0.068556
5.981000	0.154885	0.186941	19.818003	0.068556
8.973000	0.154885	0.186941	19.817368	0.068556
11.962000	0.154885	0.186941	19.818003	0.068556
14.986000	0.154885	0.186941	19.818003	0.068556
17.988000	0.154885	0.186941	19.817368	0.068873
20.975000	0.154885	0.186307	19.817368	0.068556
24.049000	0.154885	0.186941	19.818003	0.068556
26.974000	0.154885	0.186307	19.817368	0.068556
29.974000	0.154885	0.186941	19.818003	0.068556
32.970000	0.154885	0.186941	19.817368	0.068556
35.963000	0.154885	0.186941	19.817368	0.068556
38.975000	0.154885	0.186941	19.817368	0.068556
41.963000	0.154885	0.186941	19.817368	0.068556
45.029000	0.154885	0.186941	19.817049	0.068556
48.076000	0.154885	0.186941	19.817049	0.068556
51.062000	0.154885	0.186941	19.817049	0.068556
53.974999	0.154885	0.186941	19.817368	0.068556
56.964000	0.154885	0.186941	19.817049	0.068556
60.039000	0.154885	0.186941	19.817049	0.068556
62.963000	0.154885	0.186941	19.817049	0.068556
65.975000	0.154885	0.186941	19.817049	0.068556
68.984000	0.154885	0.186941	19.817049	0.068556
72.020000	0.154885	0.186941	19.817049	0.068556
74.977000	0.154885	0.186941	19.817049	0.068556
77.977000	0.154250	0.186941	19.817049	0.068556
80.965000	0.154885	0.186307	19.817049	0.068556
83.976000	0.154250	0.186941	19.817049	0.068556
86.965000	0.154885	0.186941	19.816732	0.068556
89.965000	0.154885	0.186941	19.817049	0.068556
92.993001	0.154885	0.186941	19.816732	0.068556
95.984000	0.154885	0.186941	19.816732	0.068556
98.985001	0.154250	0.186941	19.816732	0.068556
102.061000	0.154885	0.186941	19.816732	0.068556
104.977000	0.154885	0.186307	19.816416	0.068556
107.998000	0.154250	0.186307	19.816732	0.068556
110.977000	0.154885	0.186307	19.816732	0.067921
113.966000	0.154885	0.186941	19.816416	0.068556
116.965000	0.154250	0.186941	19.816732	0.068556
119.979000	0.154885	0.186941	19.816732	0.068556
122.967000	0.154885	0.186941	19.816732	0.068556
125.979000	0.154250	0.186307	19.816732	0.068556
128.966000	0.154250	0.186307	19.816416	0.068556
131.974000	0.154885	0.186941	19.816732	0.068556
134.966000	0.154250	0.186307	19.816416	0.068556
137.980000	0.154250	0.186307	19.816416	0.068556
140.979000	0.154885	0.186307	19.816416	0.068556
143.996000	0.154250	0.186307	19.816416	0.068556
146.967000	0.154885	0.186307	19.816416	0.068556
149.980000	0.154885	0.186941	19.816416	0.068556
152.976000	0.154885	0.186941	19.816416	0.068556
156.088000	0.154250	0.186307	19.816416	0.068556
158.981000	0.154250	0.186941	19.816416	0.068556
162.072000	0.154885	0.186941	19.816097	0.068556
164.977000	0.154885	0.186307	19.816097	0.068556
167.977000	0.154250	0.186307	19.816097	0.068556
170.981000	0.154250	0.186307	19.816416	0.068556
173.977000	0.154885	0.186307	19.816416	0.068556
177.026000	0.154250	0.186307	19.816416	0.068556
180.006000	0.154250	0.186307	19.816097	0.068556
182.977000	0.154885	0.186307	19.816097	0.068556
185.989000	0.154250	0.186307	19.816097	0.068556
188.982000	0.154885	0.186941	19.816097	0.068556
191.990000	0.154250	0.186307	19.816097	0.067921
194.983000	0.154885	0.186941	19.815781	0.067921
197.991000	0.154250	0.186307	19.816097	0.068556
201.067000	0.154885	0.186307	19.815781	0.068556
203.984000	0.154250	0.186307	19.816097	0.068556
206.984000	0.154250	0.186307	19.816097	0.068556
209.990000	0.154250	0.186307	19.815781	0.068556
212.986000	0.154250	0.186941	19.816097	0.068556
215.982000	0.154885	0.186307	19.815781	0.068556
218.987000	0.154885	0.186307	19.815781	0.068556
222.067000	0.154250	0.186307	19.815781	0.068556
225.015000	0.154250	0.186307	19.815781	0.068556
227.983000	0.154885	0.186941	19.815781	0.068556
231.095000	0.154250	0.186307	19.815781	0.068556
234.075000	0.154250	0.186307	19.815781	0.068556
236.983000	0.154250	0.186307	19.815145	0.068556
239.976000	0.154250	0.186307	19.815145	0.068556
242.984000	0.154885	0.186307	19.815145	0.068556
245.999000	0.154885	0.186307	19.815781	0.068556
249.080000	0.154250	0.186307	19.815145	0.068556
252.038000	0.154250	0.186307	19.815145	0.067921
254.976000	0.154250	0.186307	19.815145	0.068556
257.988000	0.154250	0.186307	19.815145	0.067921
260.986000	0.154250	0.186307	19.815145	0.068556
263.985000	0.154250	0.186941	19.814829	0.067921
266.977000	0.154250	0.186307	19.815145	0.067921
269.989000	0.154250	0.186307	19.815145	0.068556
272.989000	0.154250	0.186307	19.815145	0.067921
275.978001	0.154250	0.186307	19.815145	0.068556
279.058001	0.154250	0.186307	19.814829	0.068556
281.994000	0.154250	0.186307	19.814829	0.067921
284.990000	0.154250	0.186307	19.814829	0.068556
287.992000	0.154250	0.186941	19.815145	0.067921
290.980000	0.154250	0.186307	19.814829	0.067921
293.992000	0.154250	0.186307	19.815145	0.067921
296.992000	0.154250	0.186307	19.814829	0.068556
299.992000	0.154250	0.186307	19.814829	0.068556
302.991000	0.154250	0.186307	19.814829	0.067921
305.992001	0.154250	0.186307	19.814829	0.067921
308.987000	0.154250	0.186307	19.814829	0.067921
311.992000	0.154885	0.186307	19.814510	0.067921
315.022000	0.154250	0.186307	19.814829	0.067921
318.001000	0.154250	0.186307	19.814510	0.067921
320.993001	0.154250	0.186307	19.814829	0.067921
324.074000	0.154250	0.186307	19.814510	0.067921
327.006000	0.154250	0.186307	19.814829	0.068556
329.981000	0.154250	0.186307	19.814829	0.067921
332.994000	0.154250	0.186307	19.814510	0.067921
335.990000	0.154250	0.186307	19.814829	0.067921
339.010000	0.154250	0.186307	19.814510	0.067921
341.993000	0.154250	0.186307	19.814510	0.068556
344.982000	0.154250	0.185989	19.814510	0.068556
347.982000	0.154250	0.186307	19.814510	0.067921
351.077000	0.154250	0.186307	19.814510	0.067921
354.002000	0.154250	0.186307	19.814510	0.067921
356.983000	0.154250	0.186307	19.814510	0.067921
359.983000	0.154250	0.186307	19.814510	0.067921
362.995000	0.154250	0.186307	19.814510	0.067921
366.003000	0.154250	0.186307	19.814510	0.067921
368.995000	0.154250	0.186307	19.814194	0.067921
371.995000	0.154250	0.186307	19.814510	0.067921
375.001000	0.154250	0.186307	19.814510	0.067921
378.002000	0.154250	0.186307	19.814194	0.067921
380.987000	0.154250	0.186307	19.814510	0.067921
384.103001	0.154250	0.186307	19.814194	0.067921
386.988000	0.154250	0.186307	19.814194	0.068556
389.999000	0.154250	0.186307	19.814510	0.067921
393.004000	0.154250	0.186307	19.814510	0.067921
395.987000	0.153933	0.186307	19.814194	0.067921
398.988000	0.153933	0.186307	19.814194	0.067921
401.988000	0.153933	0.186307	19.814194	0.067921
404.996000	0.153933	0.186307	19.814194	0.067921
408.008001	0.154250	0.186307	19.814194	0.068556
410.989001	0.154250	0.186307	19.814194	0.067921
414.010000	0.154250	0.186307	19.814194	0.068556
417.002000	0.154250	0.186307	19.814194	0.067921
419.989000	0.154250	0.186307	19.814194	0.067921
423.002000	0.154250	0.186307	19.814194	0.067921
426.002000	0.154250	0.186307	19.814194	0.067921
429.010000	0.153933	0.186307	19.814194	0.067921
432.002000	0.153933	0.186307	19.814194	0.067921
435.111001	0.154250	0.186307	19.813875	0.067921
438.084001	0.154250	0.186307	19.813875	0.067921
440.993000	0.153933	0.186307	19.813875	0.067921
444.005000	0.153933	0.186307	19.813875	0.067921
447.005000	0.154250	0.186307	19.813875	0.067921
450.009000	0.154250	0.186307	19.814194	0.067921
453.009000	0.153933	0.186307	19.813875	0.067921
456.017000	0.153933	0.186307	19.813875	0.067921
459.013000	0.153933	0.185989	19.813875	0.067921
462.005000	0.153933	0.186307	19.813875	0.067921
465.004001	0.153933	0.186307	19.813875	0.067921
468.004000	0.153933	0.186307	19.813875	0.067921
471.000000	0.154250	0.185989	19.813242	0.067921
474.000000	0.153933	0.186307	19.813875	0.067921
477.083000	0.153933	0.186307	19.813875	0.067921
480.063000	0.153933	0.186307	19.813242	0.067921
483.051000	0.153933	0.186307	19.813875	0.067921
485.992001	0.153933	0.186307	19.813875	0.067921
489.013000	0.153933	0.186307	19.813875	0.067921
492.009000	0.153933	0.186307	19.813875	0.067921
494.992000	0.153933	0.186307	19.813242	0.067921
498.026000	0.154250	0.186307	19.813242	0.067921
501.005000	0.153933	0.186307	19.813242	0.067921
504.005000	0.153933	0.186307	19.813875	0.067921
507.006000	0.153933	0.186307	19.813242	0.067921
510.014000	0.153933	0.185989	19.813875	0.067604
513.007000	0.153933	0.186307	19.813242	0.067921
516.002000	0.153933	0.186307	19.813875	0.067921
519.011000	0.153933	0.186307	19.812923	0.067921
522.007000	0.153933	0.186307	19.813242	0.067921
525.002000	0.153933	0.185989	19.813242	0.067921
528.043000	0.153933	0.185989	19.813242	0.067921
531.011000	0.153933	0.186307	19.812923	0.067604
533.995000	0.153933	0.185989	19.813242	0.067921
536.994000	0.153933	0.186307	19.812923	0.067921
540.082000	0.153933	0.186307	19.813242	0.067921
543.069000	0.154250	0.186307	19.813242	0.067921
546.022000	0.153933	0.185989	19.812923	0.067921
549.006000	0.153933	0.185989	19.813242	0.067921
552.047000	0.153933	0.185989	19.813242	0.067921
555.003000	0.153933	0.185989	19.812923	0.067921
558.006000	0.153933	0.186307	19.812923	0.067921
561.002000	0.153933	0.186307	19.812923	0.067921
564.023000	0.153933	0.186307	19.812923	0.067604
567.006001	0.153933	0.186307	19.813242	0.067921
570.056000	0.153933	0.186307	19.812923	0.067921
573.014000	0.153933	0.186307	19.812923	0.067921
576.006000	0.153933	0.185989	19.812923	0.067921
579.006000	0.153933	0.185989	19.812923	0.067921
582.018000	0.153933	0.185989	19.812923	0.067921
585.011000	0.153933	0.185989	19.812923	0.067921
588.015000	0.153933	0.185989	19.812607	0.067921
590.994000	0.153933	0.186307	19.812923	0.067604
593.995000	0.153933	0.185989	19.812923	0.067604
597.010000	0.153933	0.185989	19.812607	0.067921
600.006000	0.153933	0.186307	19.812607	0.067921
603.007000	0.153616	0.185989	19.812923	0.067921
606.014000	0.153933	0.186307	19.812923	0.067921
609.006000	0.153933	0.185989	19.812923	0.067921
612.002000	0.153933	0.186307	19.812607	0.067921
615.002000	0.153933	0.185989	19.812923	0.067921
618.002000	0.153616	0.186307	19.812607	0.067921
621.014000	0.153616	0.186307	19.812923	0.067921
624.014000	0.153933	0.186307	19.812923	0.067921
627.074000	0.153933	0.185989	19.812923	0.067921
630.004000	0.153616	0.185989	19.812607	0.067921
633.010000	0.153933	0.185989	19.812607	0.067921
635.997000	0.153933	0.185989	19.812923	0.067921
639.113000	0.153933	0.185989	19.812607	0.067921
642.009000	0.153933	0.186307	19.812607	0.067921
645.009000	0.153616	0.185989	19.812607	0.067921
648.005000	0.153933	0.185989	19.812607	0.067604
651.009000	0.153616	0.185989	19.812923	0.067604
654.005000	0.153616	0.185989	19.812607	0.067921
657.005000	0.153616	0.185989	19.812607	0.067921
660.005000	0.153933	0.186307	19.812607	0.067604
663.047000	0.153933	0.185989	19.812923	0.067921
666.014000	0.153933	0.185989	19.812607	0.067604
669.017000	0.153616	0.185989	19.812607	0.067921
672.009000	0.153933	0.185989	19.812607	0.067921
675.042000	0.153616	0.185989	19.812607	0.067921
678.017000	0.153616	0.185989	19.812607	0.067921
681.010000	0.153616	0.186307	19.812607	0.067604
684.012000	0.153933	0.186307	19.812288	0.067604
687.015000	0.153933	0.185989	19.812607	0.067604
689.999000	0.153616	0.185989	19.812288	0.067604
693.103001	0.153933	0.185989	19.812607	0.067604
696.012000	0.153616	0.185989	19.812607	0.067921
699.008000	0.153933	0.185989	19.812607	0.067921
702.000000	0.153616	0.185989	19.812607	0.067604
705.045000	0.153933	0.185989	19.812607	0.067604
708.008000	0.153616	0.185989	19.812607	0.067604
711.013000	0.153616	0.185989	19.812607	0.067604
714.014000	0.153616	0.185989	19.812607	0.067604
717.013000	0.153616	0.185989	19.812288	0.067604
720.014000	0.153616	0.185989	19.812288	0.067604
723.014000	0.153616	0.185989	19.812288	0.067604
726.022000	0.153616	0.185989	19.812607	0.067604
729.015000	0.153616	0.185989	19.812288	0.067604
732.110000	0.153616	0.185989	19.812607	0.067604
735.035000	0.153616	0.185989	19.812288	0.067604
738.014000	0.153616	0.185989	19.812288	0.067604
741.014000	0.153616	0.185989	19.812288	0.067604
744.022000	0.153933	0.185989	19.812607	0.067604
747.015001	0.153616	0.185989	19.812607	0.067604
750.010000	0.153616	0.185989	19.812607	0.067604
753.010000	0.153616	0.185989	19.812288	0.067604
756.010000	0.153616	0.185989	19.812288	0.067604
759.015000	0.153616	0.185989	19.812288	0.067604
762.009000	0.153616	0.185989	19.812288	0.067604
765.064000	0.153616	0.185989	19.812288	0.067604
768.022000	0.153616	0.185989	19.812607	0.067604
771.014000	0.153616	0.185989	19.812288	0.067604
774.015001	0.153616	0.185989	19.812288	0.067604
777.023000	0.153616	0.185989	19.812288	0.067604
780.109000	0.153933	0.185989	19.812288	0.067604
783.002000	0.153616	0.185989	19.812607	0.067604
786.010000	0.153616	0.185989	19.812288	0.067604
789.003000	0.153616	0.185989	19.812288	0.067921
792.011000	0.153616	0.185989	19.812288	0.067604
795.014000	0.153616	0.185989	19.812288	0.067604
798.105000	0.153616	0.185989	19.812288	0.067604
801.015001	0.153616	0.185989	19.812288	0.067604
804.082000	0.153616	0.185989	19.812288	0.067604
807.015000	0.153616	0.185989	19.812288	0.067921
810.070000	0.153616	0.185989	19.812288	0.067604
813.016000	0.153616	0.185989	19.812288	0.067604
816.017000	0.153616	0.185989	19.811972	0.067921
819.024000	0.153616	0.185989	19.811972	0.067604
822.005000	0.153616	0.185989	19.812288	0.067604
825.032001	0.153616	0.185989	19.812288	0.067604
828.108000	0.153616	0.185989	19.812288	0.067604
831.024000	0.153616	0.185989	19.811972	0.067604
834.077000	0.153616	0.185989	19.812288	0.067604
837.004000	0.153616	0.185989	19.812288	0.067604
840.117000	0.153616	0.185672	19.811972	0.067604
843.050000	0.153616	0.185989	19.811972	0.067604
846.017000	0.153616	0.185989	19.811972	0.067604
849.014000	0.153616	0.185989	19.811972	0.067604
852.018001	0.153616	0.185989	19.811972	0.067604
855.018000	0.153616	0.185989	19.811972	0.067604
858.029000	0.153616	0.185989	19.811972	0.067604
861.025000	0.153616	0.185989	19.811972	0.067604
864.018000	0.153616	0.185989	19.811972	0.067604
867.017000	0.153616	0.185989	19.811972	0.067604
870.017000	0.153616	0.185989	19.811972	0.067604
873.014000	0.153616	0.185989	19.811972	0.067604
876.006001	0.153298	0.185989	19.811972	0.067604
879.018001	0.153616	0.185989	19.811972	0.067604
882.007000	0.153616	0.185989	19.812288	0.067604
885.019000	0.153616	0.185989	19.811972	0.067604
888.018000	0.153616	0.185989	19.811972	0.067604
891.034000	0.153616	0.185989	19.811972	0.067604
894.019001	0.153616	0.185989	19.811972	0.067604
897.015000	0.153616	0.185989	19.811972	0.067604
900.007000	0.153616	0.185989	19.811972	0.067604
903.019001	0.153616	0.185989	19.811337	0.067604
906.015001	0.153616	0.185989	19.811972	0.067604
909.019000	0.153616	0.185989	19.811972	0.067286
912.056000	0.153616	0.185989	19.811337	0.067604
915.019001	0.153616	0.185672	19.811972	0.067604
918.033000	0.153616	0.185989	19.811972	0.067604
921.016000	0.153616	0.185989	19.811972	0.067604
924.028000	0.153616	0.185989	19.811972	0.067604
927.021000	0.153616	0.185672	19.811337	0.067604
930.016000	0.153616	0.185672	19.811337	0.067604
933.028000	0.153616	0.185989	19.811337	0.067604
936.016000	0.153616	0.185989	19.811337	0.067604
939.020000	0.153616	0.185989	19.811337	0.067604
942.008000	0.153298	0.185989	19.811337	0.067604
945.021000	0.153616	0.185989	19.811337	0.067604
948.021000	0.153616	0.185989	19.811337	0.067604
951.022000	0.153616	0.185989	19.811337	0.067604
954.022000	0.153616	0.185989	19.811337	0.067604
957.022001	0.153616	0.185989	19.811337	0.067604
960.023000	0.153616	0.185989	19.811337	0.067604
963.018000	0.153616	0.185989	19.811337	0.067604
966.022000	0.153616	0.185989	19.811337	0.067604
969.022000	0.153616	0.185989	19.811337	0.067604
972.031000	0.153616	0.185989	19.811337	0.067604
975.018000	0.153616	0.185989	19.811337	0.067604
978.018001	0.153616	0.185989	19.811337	0.067604
981.011001	0.153616	0.185989	19.811020	0.067604
984.010000	0.153616	0.185672	19.811337	0.067604
987.022000	0.153298	0.185989	19.811337	0.067604
990.018000	0.153616	0.185989	19.811337	0.067604
993.018000	0.153616	0.185989	19.811337	0.067286
996.022000	0.153298	0.185989	19.811020	0.067604
999.010000	0.153616	0.185672	19.811337	0.067604
1002.027000	0.153616	0.185989	19.811337	0.067604
1005.018001	0.153616	0.185672	19.811337	0.067604
1008.027000	0.153298	0.185672	19.811337	0.067604
1011.010000	0.153616	0.185989	19.811337	0.067604
1014.010000	0.153616	0.185989	19.811337	0.067604
1017.022000	0.153298	0.185989	19.811020	0.067604
1020.022000	0.153298	0.185989	19.811337	0.067604
1023.057000	0.153298	0.185672	19.811020	0.067604
1026.024000	0.153298	0.185989	19.811020	0.067604
1029.023000	0.153616	0.185989	19.811337	0.067604
1032.024000	0.153298	0.185989	19.811337	0.067604
1035.032001	0.153616	0.185672	19.811337	0.067604
1038.020000	0.153298	0.185989	19.811337	0.067604
1041.014000	0.153616	0.185672	19.811020	0.067604
1044.017000	0.153298	0.185672	19.811020	0.067604
1047.013000	0.153616	0.185672	19.811020	0.067604
1050.082000	0.153616	0.185989	19.811020	0.067604
1053.015000	0.153298	0.185672	19.811020	0.067604
1056.085001	0.153616	0.185672	19.811020	0.067604
1059.018001	0.153298	0.185672	19.811020	0.067604
1062.063001	0.153298	0.185989	19.811020	0.067604
1065.039000	0.153616	0.185672	19.811020	0.067604
1068.096000	0.153298	0.185989	19.811020	0.067604
1071.058000	0.153298	0.185989	19.811020	0.067604
1074.072000	0.153298	0.185672	19.811020	0.067604
1077.021000	0.153298	0.185989	19.811020	0.067604
1080.111001	0.153298	0.185989	19.811020	0.067604
1083.035000	0.153298	0.185672	19.811020	0.067604
1086.030001	0.153298	0.185672	19.811020	0.067604
1089.056000	0.153298	0.185989	19.811020	0.067604
1092.125999	0.153298	0.185672	19.810701	0.067604
1095.055000	0.153298	0.185989	19.811020	0.067604
1098.141000	0.153298	0.185672	19.811020	0.067604
1101.026000	0.153298	0.185672	19.811020	0.067604
1104.050000	0.153298	0.185989	19.810701	0.067604
1107.034000	0.153298	0.185989	19.811020	0.067286
1110.140000	0.153616	0.185672	19.810701	0.067604
1113.125000	0.153298	0.185672	19.810701	0.067604
1116.130000	0.153298	0.185672	19.811020	0.067286
1119.078000	0.153298	0.185989	19.811020	0.067604
1122.042000	0.153298	0.185672	19.810701	0.067604
1125.031000	0.153298	0.185672	19.811020	0.067604
1128.031000	0.153298	0.185672	19.810701	0.067604
1131.031000	0.153616	0.185672	19.810701	0.067604
1134.097000	0.153298	0.185672	19.810701	0.067604
1137.064000	0.153298	0.185672	19.810701	0.067604
1140.055001	0.153298	0.185672	19.810701	0.067286
1143.134000	0.153616	0.185672	19.810701	0.067604
1146.113000	0.153298	0.185672	19.810701	0.067286
1149.132000	0.153298	0.185989	19.810701	0.067286
1152.035000	0.153298	0.185672	19.810701	0.067604
1155.135000	0.153298	0.185672	19.810701	0.067286
1158.119000	0.153298	0.185672	19.810701	0.067604
1161.061000	0.153298	0.185672	19.810701	0.067286
1164.143001	0.153298	0.185672	19.811020	0.067286
1167.137000	0.153298	0.185672	19.810701	0.067604
1170.038000	0.153298	0.185672	19.810701	0.067604
1173.139000	0.153298	0.185672	19.810701	0.067604
1176.039000	0.153298	0.185672	19.810701	0.067286
1179.050000	0.153298	0.185672	19.810701	0.067604
1182.051000	0.153298	0.185672	19.810701	0.067604
1185.046000	0.153298	0.185989	19.810701	0.067286
1188.051001	0.153298	0.185672	19.810701	0.067286
1191.060000	0.153298	0.185672	19.810701	0.067286
1194.047000	0.153298	0.185672	19.810701	0.067604
1197.051000	0.153616	0.185672	19.810701	0.067604
1200.053000	0.153298	0.185672	19.810701	0.067604
1203.057000	0.153298	0.185672	19.810701	0.067604
1206.057000	0.153298	0.185672	19.810385	0.067604
1209.060000	0.153298	0.185672	19.810701	0.067604
1212.057000	0.153298	0.185672	19.810701	0.067604
1215.139000	0.153298	0.185672	19.810701	0.067286
1218.052001	0.153298	0.185672	19.810701	0.067604
1221.052999	0.153298	0.185672	19.810385	0.067286
1224.082000	0.153298	0.185672	19.810701	0.067604
1227.101000	0.153298	0.185672	19.810701	0.067604
1230.053000	0.153298	0.185672	19.810701	0.067286
1233.053000	0.153298	0.185672	19.810701	0.067286
1236.054000	0.153298	0.185672	19.810701	0.067286
1239.043000	0.153298	0.185672	19.810701	0.067286
1242.137001	0.153298	0.185672	19.810385	0.067286
1245.050000	0.153298	0.185672	19.810385	0.067286
1248.059000	0.153298	0.185672	19.810385	0.067286
1251.062000	0.153298	0.185672	19.810701	0.067286
1254.055000	0.153298	0.185672	19.810701	0.067286
1257.043000	0.153298	0.185672	19.810701	0.067286
1260.055000	0.153298	0.185672	19.810701	0.067286
1263.042000	0.153298	0.185672	19.810385	0.067286
1266.042000	0.153298	0.185672	19.810385	0.067286
1269.054000	0.153298	0.185672	19.810385	0.067286
1272.043000	0.153298	0.185672	19.810701	0.067286
1275.044000	0.153298	0.185672	19.810066	0.067286
1278.052000	0.153298	0.185672	19.810385	0.067604
1281.056000	0.153298	0.185672	19.810385	0.067604
1284.063000	0.153298	0.185672	19.810385	0.067286
1287.051000	0.153298	0.185672	19.810385	0.067286
1290.055000	0.153298	0.185672	19.810385	0.067286
1293.055000	0.153298	0.185672	19.810385	0.067286
1296.043000	0.152981	0.185672	19.810385	0.067286
1299.043000	0.153298	0.185672	19.810385	0.067286
1302.055000	0.153298	0.185672	19.810385	0.067604
1305.056000	0.153298	0.185672	19.810385	0.067286
1308.056000	0.153298	0.185672	19.810701	0.067286
1311.063001	0.153298	0.185354	19.810385	0.067286
1314.057000	0.153298	0.185672	19.810385	0.067286
1317.060000	0.153298	0.185672	19.810385	0.067604
1320.045000	0.153298	0.185672	19.810385	0.067286
1323.057000	0.153298	0.185672	19.810385	0.067286
1326.118000	0.153298	0.185672	19.810701	0.067286
1329.098000	0.153298	0.185672	19.810385	0.067286
1332.057000	0.153298	0.185672	19.810385	0.067286
1335.046000	0.153298	0.185672	19.810066	0.067286
1338.046000	0.153298	0.185672	19.810385	0.067604
1341.065000	0.153298	0.185672	19.810385	0.067604
1344.057000	0.153298	0.185672	19.810385	0.067286
1347.046000	0.153298	0.185672	19.810066	0.067286
1350.132000	0.153298	0.185672	19.810385	0.067286
1353.054000	0.153298	0.185672	19.810066	0.067286
1356.046000	0.153298	0.185672	19.810066	0.067286
1359.063000	0.153298	0.185672	19.810385	0.067286
1362.160000	0.153298	0.185672	19.810066	0.067286
1365.068000	0.153298	0.185672	19.810066	0.067286
1368.060000	0.153298	0.185672	19.810385	0.067286
1371.061000	0.153298	0.185672	19.810385	0.067286
1374.061000	0.153298	0.185672	19.810066	0.067286
1377.049000	0.153298	0.185672	19.810066	0.067286
1380.070000	0.153298	0.185672	19.810385	0.067286
1383.061000	0.153298	0.185672	19.810385	0.067286
1386.050000	0.153298	0.185672	19.810385	0.067286
1389.062000	0.152981	0.185672	19.810066	0.067286
1392.157000	0.153298	0.185672	19.810385	0.067286
1395.154000	0.152981	0.185672	19.809750	0.067286
1398.147000	0.153298	0.185672	19.810385	0.067286
1401.061000	0.153298	0.185672	19.810066	0.067286
1404.061000	0.153298	0.185672	19.810066	0.067286
1407.069000	0.153298	0.185672	19.810066	0.067286
1410.061000	0.153298	0.185672	19.810385	0.067286
1413.062000	0.153298	0.185672	19.810066	0.067286
1416.061000	0.153298	0.185672	19.810066	0.067286
1419.051001	0.153298	0.185672	19.810066	0.067286
1422.052001	0.152981	0.185672	19.810066	0.067286
1425.125000	0.153298	0.185672	19.810066	0.067286
1428.064000	0.152981	0.185672	19.810066	0.067286
1431.084000	0.152981	0.185672	19.810066	0.067286
1434.071000	0.153298	0.185672	19.810066	0.067286
1437.122000	0.153298	0.185672	19.810066	0.067286
1440.138000	0.152981	0.185672	19.810066	0.067286
1443.051000	0.152981	0.185672	19.810066	0.067286
1446.130000	0.152981	0.185672	19.810066	0.067286
1449.064000	0.152981	0.185672	19.810066	0.067286
1452.064000	0.152981	0.185672	19.809750	0.067286
1455.071000	0.152981	0.185672	19.809750	0.067286
1458.063000	0.152981	0.185354	19.810066	0.067286
1461.059000	0.152981	0.185672	19.810066	0.067286
1464.089000	0.152981	0.185672	19.810066	0.067286
1467.059000	0.153298	0.185672	19.810066	0.067286
1470.127000	0.153298	0.185672	19.810066	0.067286
1473.052001	0.152981	0.185672	19.810066	0.067286
1476.052001	0.153298	0.185672	19.810066	0.067286
1479.127000	0.152981	0.185672	19.809750	0.067286
1482.065000	0.153298	0.185672	19.809750	0.067286
1485.072000	0.152981	0.185672	19.810066	0.067286
1488.072000	0.153298	0.185672	19.810066	0.067286
1491.107000	0.152981	0.185672	19.810066	0.067286
1494.065000	0.153298	0.185354	19.809750	0.067286
1497.073000	0.152981	0.185672	19.809750	0.067286
1500.082000	0.152981	0.185354	19.809750	0.067604
1503.061000	0.152981	0.185672	19.809750	0.067286
1506.065000	0.152981	0.185672	19.809750	0.067286
1509.086000	0.153298	0.185672	19.809750	0.066969
1512.053000	0.152981	0.185672	19.809750	0.067286
1515.086000	0.152981	0.185672	19.809750	0.067286
1518.065000	0.152981	0.185672	19.809750	0.067286
1521.156000	0.152981	0.185354	19.810066	0.067286
1524.077001	0.152981	0.185672	19.809750	0.067286
1527.061000	0.152981	0.185672	19.809750	0.067286
1530.062000	0.153298	0.185354	19.809750	0.067286
1533.055000	0.152981	0.185672	19.809750	0.067286
1536.054000	0.152981	0.185672	19.809750	0.067286
1539.067000	0.152981	0.185354	19.809750	0.067286
1542.055000	0.152981	0.185672	19.809750	0.067286
1545.075000	0.152981	0.185672	19.809750	0.067286
1548.056000	0.152981	0.185354	19.809750	0.067286
1551.117001	0.152981	0.185354	19.809750	0.067286
1554.068000	0.152981	0.185672	19.809750	0.067286
1557.066999	0.152981	0.185672	19.809750	0.067286
1560.066999	0.152981	0.185672	19.809750	0.067286
1563.072000	0.152981	0.185354	19.809750	0.067286
1566.071000	0.152981	0.185672	19.809750	0.067286
1569.176000	0.152981	0.185672	19.809750	0.067286
1572.055000	0.152981	0.185354	19.809750	0.067286
1575.068000	0.152981	0.185672	19.809750	0.067286
1578.064000	0.152981	0.185354	19.809750	0.067286
1581.068000	0.152981	0.185354	19.809750	0.067286
1584.175000	0.152981	0.185354	19.809750	0.067286
1587.068000	0.152981	0.185672	19.809750	0.067286
1590.056000	0.152981	0.185672	19.810066	0.066969
1593.076000	0.152981	0.185354	19.809750	0.067286
1596.076000	0.152981	0.185672	19.810066	0.066969
1599.077000	0.152981	0.185354	19.809750	0.067286
1602.065000	0.152981	0.185354	19.809750	0.066969
1605.065001	0.152981	0.185354	19.809750	0.066969
1608.069000	0.152981	0.185354	19.809750	0.066969
1611.098000	0.152981	0.185354	19.809750	0.067286
1614.077000	0.152981	0.185672	19.809750	0.067286
1617.082000	0.152981	0.185672	19.809750	0.067286
1620.070000	0.152981	0.185672	19.809114	0.067286
1623.066000	0.152981	0.185672	19.809750	0.066969
1626.059000	0.152981	0.185354	19.809750	0.067286
1629.071000	0.152981	0.185672	19.809750	0.067286
1632.067000	0.152981	0.185672	19.809750	0.067286
1635.066999	0.152981	0.185672	19.809750	0.067286
1638.079000	0.152981	0.185672	19.809750	0.067286
1641.079000	0.152981	0.185354	19.809750	0.067286
1644.072000	0.152981	0.185672	19.809114	0.067286
1647.071000	0.152981	0.185354	19.809114	0.067286
1650.071000	0.152981	0.185354	19.809114	0.067286
1653.137001	0.152981	0.185354	19.809750	0.067286
1656.148001	0.152981	0.185354	19.809750	0.066969
1659.060000	0.152981	0.185354	19.809114	0.067286
1662.081000	0.152981	0.185672	19.809750	0.067286
1665.072000	0.152981	0.185354	19.809114	0.067286
1668.072000	0.152981	0.185672	19.809114	0.066969
1671.068000	0.152981	0.185354	19.809114	0.067286
1674.068000	0.152981	0.185672	19.809114	0.067286
1677.080000	0.152981	0.185354	19.809114	0.066969
1680.151000	0.152981	0.185354	19.809114	0.067286
1683.061000	0.152981	0.185354	19.809114	0.067286
1686.080000	0.152981	0.185672	19.809750	0.067286
1689.068000	0.152981	0.185672	19.809750	0.066969
1692.061000	0.152981	0.185354	19.809114	0.067286
1695.076000	0.152981	0.185354	19.809114	0.066969
1698.080000	0.152981	0.185354	19.809114	0.066969
1701.180000	0.152981	0.185354	19.809114	0.066969
1704.073000	0.152981	0.185354	19.809114	0.067286
1707.081000	0.152981	0.185354	19.809114	0.066969
1710.155001	0.152981	0.185354	19.809114	0.066969
1713.077000	0.152981	0.185672	19.809750	0.067286
1716.076000	0.152346	0.185354	19.809114	0.066969
1719.073000	0.152346	0.185354	19.809114	0.067286
1722.151000	0.152981	0.185354	19.809750	0.067286
1725.073000	0.152981	0.185354	19.809114	0.066969
1728.069000	0.152346	0.185354	19.809114	0.066969
1731.069000	0.152346	0.185354	19.809114	0.066969
1734.149000	0.152346	0.185037	19.808798	0.067286
1737.074001	0.152981	0.185354	19.809114	0.066969
1740.079000	0.152981	0.185672	19.809114	0.067286
1743.074000	0.152981	0.185354	19.808798	0.066969
1746.161000	0.152981	0.185354	19.809114	0.066969
1749.165000	0.152981	0.185672	19.809114	0.066969
1752.075000	0.152981	0.185672	19.809114	0.067286
1755.070001	0.152981	0.185672	19.809750	0.066969
1758.074000	0.152981	0.185354	19.809114	0.066969
1761.070001	0.152981	0.185354	19.809114	0.066969
1764.062000	0.152981	0.185354	19.809114	0.067286
1767.166000	0.152981	0.185354	19.809114	0.066969
1770.070000	0.152981	0.185354	19.809114	0.066969
1773.075000	0.152981	0.185354	19.809114	0.067286
1776.075000	0.152981	0.185354	19.809114	0.066969
1779.121000	0.152346	0.185354	19.809114	0.066969
1782.064000	0.152981	0.185354	19.809114	0.066969
1785.085001	0.152981	0.185354	19.809750	0.066969
1788.080000	0.152981	0.185354	19.809114	0.066969
1791.169000	0.152981	0.185354	19.809114	0.066969
1794.065000	0.152346	0.185354	19.809114	0.066969
1797.092000	0.152981	0.185354	19.809114	0.066969
1800.084000	0.152981	0.185354	19.809114	0.067286
1803.154000	0.152981	0.185354	19.809114	0.066969
1806.081000	0.152981	0.185354	19.809114	0.066969
1809.076000	0.152981	0.185354	19.809114	0.066969
1812.065001	0.152981	0.185354	19.809114	0.066969
1815.080000	0.152346	0.185354	19.809114	0.066969
1818.078000	0.152981	0.185672	19.809114	0.067286
1821.074000	0.152981	0.185354	19.809114	0.067286
1824.079000	0.152981	0.185354	19.809114	0.066969
1827.074000	0.152981	0.185354	19.809114	0.066969
1830.079000	0.152981	0.185354	19.809114	0.066969
1833.083000	0.152981	0.185354	19.809114	0.066969
1836.156000	0.152346	0.185354	19.809114	0.067286
1839.074001	0.152981	0.185672	19.809114	0.066969
1842.075000	0.152981	0.185354	19.809114	0.067286
1845.079000	0.152346	0.185354	19.809114	0.066969
1848.086000	0.152346	0.185354	19.809114	0.066969
1851.078001	0.152981	0.185354	19.809114	0.067286
1854.087000	0.152981	0.185354	19.809114	0.066969
1857.079000	0.152981	0.185354	19.809114	0.067286
1860.088000	0.152981	0.185354	19.809114	0.067286
1863.076000	0.152981	0.185354	19.809114	0.067286
1866.076000	0.152981	0.185354	19.809114	0.066969
1869.080000	0.152981	0.185354	19.808798	0.066969
1872.080000	0.152346	0.185354	19.809114	0.066969
1875.087000	0.152981	0.185354	19.809114	0.066969
1878.146000	0.152346	0.185354	19.809114	0.066969
1881.085001	0.152981	0.185354	19.809114	0.066969
1884.110000	0.152981	0.185354	19.808798	0.066969
1887.082000	0.152981	0.185354	19.809114	0.066969
1890.102000	0.152346	0.185354	19.809114	0.066969
1893.081001	0.152981	0.185354	19.809114	0.066969
1896.081000	0.152346	0.185354	19.809114	0.066969
1899.177000	0.152981	0.185354	19.809114	0.066969
1902.081000	0.152346	0.185354	19.808798	0.066969
1905.077000	0.152981	0.185354	19.808798	0.066969
1908.077000	0.152346	0.185354	19.808798	0.066969
1911.085001	0.152981	0.185354	19.809114	0.066969
1914.098000	0.152346	0.185354	19.809114	0.066969
1917.081001	0.152346	0.185354	19.809114	0.066969
1920.070000	0.152346	0.185354	19.809114	0.066969
1923.082000	0.152981	0.185354	19.808798	0.066969
1926.069000	0.152346	0.185354	19.808798	0.066969
1929.094000	0.152981	0.185354	19.808798	0.066969
1932.070000	0.152346	0.185354	19.808798	0.066969
1935.110000	0.152981	0.185354	19.808798	0.066969
1938.078001	0.152346	0.185354	19.808798	0.066969
1941.081000	0.152981	0.185354	19.809114	0.066969
1944.089001	0.152346	0.185354	19.809114	0.066969
1947.089000	0.152346	0.185354	19.808798	0.066969
1950.077000	0.152346	0.185354	19.808798	0.066969
1953.185000	0.152346	0.185354	19.808798	0.066969
1956.069000	0.152346	0.185354	19.808798	0.066969
1959.081000	0.152981	0.185354	19.808798	0.066969
1962.069000	0.152346	0.185354	19.808798	0.066969
1965.161000	0.152346	0.185354	19.808798	0.066969
1968.077001	0.152346	0.185354	19.808798	0.066969
1971.089000	0.152346	0.185354	19.808798	0.066969
1974.148000	0.152981	0.185354	19.808798	0.066969
1977.081000	0.152346	0.185354	19.808798	0.066969
1980.087000	0.152346	0.185354	19.808798	0.066969
1983.091000	0.152346	0.185354	19.808798	0.066969
1986.175000	0.152346	0.185354	19.808798	0.066969
1989.083000	0.152346	0.185354	19.808798	0.066969
1992.091001	0.152346	0.185354	19.808798	0.066969
1995.071000	0.152981	0.185354	19.808798	0.066969
1998.083000	0.152981	0.185354	19.808479	0.066969
2001.092000	0.152981	0.185354	19.808798	0.066969
2004.089000	0.152346	0.185354	19.808479	0.066969
2007.151000	0.152981	0.185354	19.808798	0.066969
2010.084000	0.152346	0.185354	19.808798	0.066969
2013.084000	0.152346	0.185354	19.808798	0.066969
2016.127000	0.152346	0.185354	19.808798	0.066969
2019.090000	0.152346	0.185354	19.808798	0.066969
2022.090000	0.152981	0.185354	19.808798	0.066969
2025.151000	0.152346	0.185354	19.808479	0.066969
2028.082000	0.152981	0.185354	19.808479	0.066969
2031.086000	0.152346	0.185354	19.808479	0.066969
2034.087000	0.152346	0.185354	19.808798	0.066969
2037.075000	0.152346	0.185354	19.808479	0.066969
2040.187000	0.152346	0.185354	19.808479	0.066969
2043.086000	0.152346	0.185354	19.808798	0.066969
2046.091001	0.152346	0.185354	19.808479	0.066969
2049.082000	0.152346	0.185354	19.808479	0.066969
2052.085999	0.152346	0.185354	19.808798	0.066969
2055.074000	0.152346	0.185354	19.808798	0.066969
2058.075000	0.152346	0.185354	19.808479	0.066969
2061.107000	0.152346	0.185354	19.808798	0.066969
2064.086000	0.152981	0.185354	19.808798	0.066969
2067.086000	0.152346	0.185354	19.808798	0.066969
2070.194000	0.152346	0.185354	19.808479	0.066969
2073.094000	0.152346	0.185354	19.808479	0.066969
2076.087000	0.152346	0.185354	19.808479	0.066969
2079.075000	0.152346	0.185354	19.808479	0.066969
2082.095000	0.152346	0.185354	19.808479	0.066969
2085.076000	0.152346	0.185354	19.808479	0.066969
2088.088000	0.152346	0.185354	19.808479	0.066969
2091.084000	0.152346	0.185354	19.808479	0.066969
2094.076000	0.152346	0.185354	19.808479	0.066969
2097.096001	0.152346	0.185354	19.808163	0.066969
2100.084001	0.152346	0.185354	19.808479	0.066969
2103.096000	0.152346	0.185354	19.808163	0.066969
2106.090000	0.152346	0.185354	19.808479	0.066969
2109.098000	0.152346	0.185354	19.808479	0.066969
2112.130000	0.152346	0.185354	19.808479	0.066969
2115.193000	0.152346	0.185354	19.808479	0.066969
2118.110000	0.152346	0.185354	19.808479	0.066969
2121.091000	0.152346	0.185354	19.808479	0.066969
2124.079000	0.152346	0.185354	19.808479	0.066969
2127.091000	0.152346	0.185354	19.808479	0.066969
2130.157000	0.152346	0.185354	19.808479	0.066969
2133.087000	0.152346	0.185354	19.808479	0.066969
2136.091000	0.152346	0.185354	19.808479	0.066969
2139.092000	0.152346	0.185354	19.808479	0.066969
2142.079000	0.152346	0.185354	19.808479	0.066969
2145.186000	0.152346	0.185354	19.808798	0.066969
2148.087000	0.152346	0.185354	19.808479	0.066969
2151.105000	0.152346	0.185354	19.808479	0.066969
2154.088000	0.152346	0.185354	19.808798	0.066969
2157.117000	0.152346	0.185354	19.808479	0.066969
2160.101000	0.152346	0.185354	19.808479	0.066969
2163.094000	0.152346	0.185354	19.808479	0.066969
2166.101000	0.152346	0.185037	19.808479	0.066969
2169.094000	0.152346	0.185354	19.808479	0.066969
2172.090000	0.152346	0.185354	19.808479	0.066969
2175.101000	0.152346	0.185354	19.808479	0.066969
2178.089001	0.152346	0.185037	19.808479	0.066969
2181.114000	0.152346	0.185354	19.808163	0.066969
2184.089000	0.152346	0.185354	19.808163	0.066969
2187.094000	0.152346	0.185354	19.808163	0.066969
2190.164000	0.152346	0.185354	19.808479	0.066969
2193.094000	0.152346	0.185354	19.808163	0.066969
2196.083000	0.152346	0.185354	19.808163	0.066969
2199.103001	0.152346	0.185354	19.808163	0.066969
2202.092000	0.152346	0.185354	19.808479	0.066969
2205.091000	0.152346	0.185037	19.808163	0.066969
2208.096000	0.152346	0.185354	19.808479	0.066969
2211.083000	0.152346	0.185037	19.808163	0.066969
2214.091000	0.152346	0.185354	19.808479	0.066969
2217.096000	0.152346	0.185354	19.808163	0.066969
2220.091000	0.152346	0.185037	19.808479	0.066969
2223.196000	0.152346	0.185037	19.808163	0.066969
2226.138000	0.152346	0.185037	19.808479	0.066969
2229.113000	0.152346	0.185354	19.808479	0.066969
2232.096000	0.152346	0.185354	19.808479	0.066969
2235.084000	0.152346	0.185354	19.808163	0.066969
2238.163000	0.152346	0.185354	19.808163	0.066969
2241.104000	0.152346	0.185354	19.808163	0.066969
2244.096000	0.152346	0.185354	19.808163	0.066969
2247.104000	0.152346	0.185037	19.808163	0.066969
2250.138000	0.152346	0.185354	19.808163	0.066969
2253.105000	0.152346	0.185354	19.808163	0.066969
2256.097000	0.152346	0.185037	19.808163	0.066969
2259.085000	0.152346	0.185354	19.808163	0.066969
2262.096000	0.152029	0.185354	19.807846	0.066969
2265.092000	0.152346	0.185354	19.808163	0.066969
2268.100000	0.152346	0.185037	19.808479	0.066969
2271.096000	0.152346	0.185037	19.808163	0.066969
2274.092000	0.152029	0.185037	19.808163	0.066969
2277.101000	0.152346	0.185354	19.808163	0.066969
2280.104000	0.152029	0.185354	19.808163	0.066651
2283.104000	0.152346	0.185354	19.808163	0.066651
2286.104000	0.152346	0.185037	19.808163	0.066969
2289.204000	0.152346	0.185354	19.807846	0.066969
2292.085001	0.152346	0.185037	19.808163	0.066969
2295.085001	0.152029	0.185037	19.808163	0.066969
2298.179000	0.152346	0.185354	19.808163	0.066969
2301.121000	0.152346	0.185037	19.808163	0.066969
2304.085001	0.152029	0.185037	19.808163	0.066969
2307.101000	0.152346	0.185354	19.808163	0.066969
2310.096000	0.152346	0.185037	19.808163	0.066969
2313.201000	0.152346	0.185037	19.807846	0.066969
2316.093000	0.152346	0.185037	19.807846	0.066969
2319.093000	0.152346	0.185037	19.808163	0.066969
2322.097000	0.152346	0.185354	19.808163	0.066969
2325.169000	0.152346	0.185037	19.807846	0.066969
2328.087000	0.152029	0.185354	19.808163	0.066969
2331.098001	0.152346	0.185037	19.807846	0.066651
2334.119000	0.152346	0.185037	19.808163	0.066651
2337.106000	0.152346	0.185354	19.808163	0.066969
2340.095000	0.152346	0.185037	19.808163	0.066969
2343.107000	0.152346	0.185037	19.808163	0.066969
2346.115000	0.152346	0.185037	19.807846	0.066969
2349.103000	0.152346	0.185354	19.807846	0.066969
2352.158000	0.152346	0.185037	19.807846	0.066651
2355.183000	0.152346	0.185354	19.807846	0.066651
2358.174000	0.152029	0.185037	19.807846	0.066969
2361.100000	0.152346	0.185037	19.807846	0.066969
2364.107000	0.152346	0.185037	19.807846	0.066969
2367.167000	0.152346	0.185354	19.808163	0.066969
2370.095000	0.152346	0.185037	19.807846	0.066969
2373.099000	0.152346	0.185037	19.807846	0.066651
2376.099000	0.152029	0.185037	19.807846	0.066969
2379.104000	0.152029	0.185037	19.807846	0.066969
2382.120000	0.152346	0.185037	19.808163	0.066969
2385.107001	0.152346	0.185037	19.807846	0.066969
2388.203000	0.152346	0.185354	19.807846	0.066969
2391.104000	0.152346	0.185354	19.807846	0.066969
2394.095000	0.152346	0.185037	19.808163	0.066969
2397.088000	0.152346	0.185037	19.808163	0.066969
2400.207000	0.152346	0.185037	19.807846	0.066651
2403.095000	0.152346	0.185354	19.807846	0.066969
2406.088000	0.152346	0.185037	19.807846	0.066969
2409.108000	0.152346	0.185037	19.807846	0.066969
2412.101000	0.152029	0.185037	19.807846	0.066651
2415.091000	0.152346	0.185037	19.807846	0.066969
2418.110000	0.152346	0.185037	19.807846	0.066651
2421.102000	0.152346	0.185037	19.807211	0.066969
2424.191000	0.152029	0.185037	19.807846	0.066651
2427.098000	0.152346	0.185354	19.807846	0.066651
2430.090000	0.152346	0.185354	19.807211	0.066969
2433.091001	0.152029	0.185037	19.807846	0.066969
2436.098001	0.152029	0.185037	19.807846	0.066969
2439.103000	0.152346	0.185037	19.807211	0.066651
2442.092999	0.152029	0.185037	19.807211	0.066651
2445.104000	0.152346	0.185037	19.807846	0.066969
2448.108000	0.152346	0.185037	19.807211	0.066969
2451.159000	0.152029	0.185037	19.807211	0.066969
2454.134000	0.152029	0.185037	19.807211	0.066651
2457.101000	0.152029	0.185037	19.807211	0.066969
2460.110001	0.152029	0.185037	19.807846	0.066969
2463.193000	0.152346	0.185037	19.807211	0.066651
2466.095000	0.152346	0.185037	19.807211	0.066969
2469.102000	0.152346	0.185037	19.807211	0.066651
2472.114000	0.152029	0.185037	19.807846	0.066651
2475.106000	0.152346	0.185037	19.807846	0.066651
2478.111001	0.152346	0.185037	19.807211	0.066969
2481.193000	0.152029	0.185037	19.807211	0.066969
2484.180000	0.152029	0.185037	19.807846	0.066969
2487.173000	0.152029	0.185037	19.807211	0.066651
2490.205000	0.152346	0.185037	19.807211	0.066651
2493.151000	0.152346	0.185037	19.807211	0.066651
2496.207000	0.152346	0.185037	19.807211	0.066651
2499.094000	0.152029	0.185037	19.807211	0.066969
2502.094000	0.152346	0.185354	19.807846	0.066651
2505.094000	0.152029	0.185037	19.807211	0.066969
2508.095000	0.152029	0.185037	19.807211	0.066651
2511.108000	0.152029	0.185037	19.807846	0.066651
2514.103001	0.152029	0.185037	19.807211	0.066969
2517.111000	0.152029	0.185037	19.807211	0.066651
2520.115000	0.152029	0.185037	19.807211	0.066651
2523.107000	0.152029	0.185037	19.807211	0.066969
2526.120000	0.152029	0.185037	19.807846	0.066969
2529.136000	0.152346	0.185037	19.807211	0.066651
2532.107000	0.152346	0.185037	19.807846	0.066651
2535.096001	0.152029	0.185037	19.807846	0.066651
2538.095000	0.152029	0.185037	19.807211	0.066651
2541.132000	0.152346	0.185037	19.807211	0.066969
2544.108000	0.152346	0.185037	19.807211	0.066651
2547.095000	0.152029	0.185037	19.807846	0.066969
2550.112000	0.152029	0.185037	19.807846	0.066651
2553.107000	0.152029	0.185037	19.807846	0.066651
2556.176000	0.152029	0.185037	19.807846	0.066651
2559.115000	0.152029	0.185037	19.807211	0.066651
2562.109000	0.152029	0.185037	19.807846	0.066651
2565.199000	0.152029	0.185037	19.807846	0.066651
2568.108000	0.152346	0.185037	19.807211	0.066651
2571.117000	0.152029	0.185037	19.807846	0.066651
2574.106000	0.152029	0.185037	19.807211	0.066969
2577.111001	0.152029	0.185037	19.807846	0.066651
2580.115000	0.152029	0.185037	19.807846	0.066651
2583.140000	0.152029	0.185037	19.807846	0.066651
2586.100000	0.152029	0.185037	19.807846	0.066651
2589.162001	0.152346	0.185037	19.807846	0.066651
2592.116000	0.152346	0.185037	19.807211	0.066651
2595.118999	0.152029	0.185037	19.807211	0.066969
2598.184000	0.152029	0.185037	19.807846	0.066651
2601.116000	0.152029	0.185037	19.807846	0.066651
2604.109000	0.152029	0.185037	19.807846	0.066651
2607.112000	0.152029	0.185037	19.807846	0.066651
2610.174000	0.152029	0.185037	19.807211	0.066651
2613.116000	0.152346	0.185037	19.807211	0.066651
2616.108000	0.152346	0.185037	19.807211	0.066969
2619.108000	0.152029	0.185037	19.807211	0.066651
2622.120000	0.152029	0.185037	19.807211	0.066651
2625.112000	0.152029	0.185037	19.807211	0.066651
2628.100000	0.152029	0.185037	19.807211	0.066651
2631.108000	0.152029	0.185037	19.807211	0.066651
2634.113000	0.152029	0.185037	19.807211	0.066969
2637.108000	0.152029	0.185037	19.807211	0.066651
2640.112000	0.152029	0.185037	19.807211	0.066651
2643.108000	0.152029	0.185037	19.807211	0.066651
2646.117000	0.152029	0.185037	19.807211	0.066651
2649.120000	0.152029	0.185037	19.806892	0.066651
2652.112000	0.152029	0.185037	19.807211	0.066651
2655.108000	0.152029	0.185037	19.806892	0.066651
2658.113000	0.152029	0.185037	19.806892	0.066651
2661.114000	0.152029	0.185037	19.807211	0.066651
2664.118001	0.152029	0.185037	19.807211	0.066969
2667.137001	0.152029	0.185037	19.806892	0.066651
2670.113000	0.152029	0.185037	19.807211	0.066651
2673.109000	0.152029	0.185037	19.807211	0.066651
2676.102000	0.152029	0.185037	19.806892	0.066651
2679.110000	0.152029	0.185037	19.807211	0.066651
2682.168000	0.152029	0.185037	19.807211	0.066651
2685.102000	0.152029	0.185037	19.807211	0.066651
2688.114000	0.152029	0.185037	19.807211	0.066651
2691.122001	0.152346	0.185037	19.807211	0.066651
2694.180000	0.152029	0.185037	19.806892	0.066651
2697.182000	0.152029	0.185037	19.806892	0.066651
2700.116000	0.152029	0.185037	19.806892	0.066651
2703.121000	0.152029	0.185037	19.806892	0.066651
2706.116000	0.152029	0.185037	19.806892	0.066651
2709.116000	0.152029	0.185037	19.806892	0.066651
2712.124000	0.152029	0.185037	19.807211	0.066651
2715.116000	0.152029	0.185037	19.807211	0.066651
2718.124000	0.152029	0.185037	19.806892	0.066651
2721.196000	0.152029	0.185037	19.806892	0.066651
2724.170000	0.152029	0.185037	19.806892	0.066651
2727.209000	0.152029	0.185037	19.807211	0.066651
2730.106000	0.152029	0.185037	19.806892	0.066651
2733.118000	0.152029	0.185037	19.806892	0.066651
2736.105000	0.152029	0.185037	19.806892	0.066651
2739.105000	0.152029	0.185037	19.806892	0.066651
2742.200000	0.152029	0.185037	19.807211	0.066651
2745.113000	0.152029	0.185037	19.807211	0.066651
2748.125000	0.152029	0.185037	19.806892	0.066651
2751.113000	0.152029	0.185037	19.806892	0.066651
2754.118999	0.152029	0.185037	19.806892	0.066651
2757.108000	0.152029	0.185037	19.806892	0.066651
2760.185000	0.152029	0.185037	19.806892	0.066651
2763.126000	0.152029	0.185037	19.807211	0.066651
2766.117000	0.152029	0.185037	19.806892	0.066651
2769.121000	0.152029	0.185037	19.806892	0.066651
2772.109000	0.152029	0.185037	19.806892	0.066651
2775.109000	0.152029	0.185037	19.806892	0.066651
2778.130000	0.152029	0.185037	19.806892	0.066651
2781.118000	0.152029	0.185037	19.806892	0.066651
2784.123000	0.152029	0.185037	19.806892	0.066651
2787.120000	0.152029	0.185037	19.806892	0.066651
2790.124000	0.152029	0.185037	19.806892	0.066651
2793.123000	0.152029	0.185037	19.807211	0.066651
2796.131000	0.152029	0.185037	19.806892	0.066651
2799.119000	0.152029	0.185037	19.806892	0.066651
2802.123000	0.152029	0.185037	19.806892	0.066651
2805.120000	0.152029	0.185037	19.806892	0.066651
2808.119000	0.152029	0.185037	19.806892	0.066651
2811.131000	0.152029	0.185037	19.806892	0.066651
2814.194000	0.152029	0.185037	19.806892	0.066651
2817.112000	0.152029	0.185037	19.806892	0.066651
2820.124000	0.152029	0.185037	19.807211	0.066651
2823.158000	0.152029	0.185037	19.806892	0.066651
2826.153000	0.152029	0.185037	19.806892	0.066651
2829.173000	0.152029	0.185037	19.806892	0.066651
2832.121000	0.152029	0.185037	19.806892	0.066651
2835.191000	0.152029	0.185037	19.806892	0.066651
2838.125000	0.152029	0.185037	19.806892	0.066651
2841.124000	0.152029	0.185037	19.806892	0.066651
2844.132000	0.152029	0.185037	19.806892	0.066651
2847.131000	0.152029	0.185037	19.806892	0.066651
2850.120000	0.152029	0.185037	19.806892	0.066651
2853.120000	0.152029	0.185037	19.806892	0.066651
2856.133000	0.152029	0.184402	19.806892	0.066651
2859.120000	0.152029	0.185037	19.806892	0.066651
2862.124000	0.152029	0.185037	19.806892	0.066651
2865.198000	0.152029	0.185037	19.806892	0.066651
2868.112000	0.152029	0.185037	19.806892	0.066651
2871.125000	0.152029	0.185037	19.806259	0.066651
2874.120000	0.152029	0.185037	19.806892	0.066651
2877.124001	0.152029	0.185037	19.806892	0.066651
2880.124000	0.152029	0.185037	19.806892	0.066651
2883.133000	0.152029	0.185037	19.806892	0.066651
2886.115000	0.152029	0.185037	19.806892	0.066651
2889.126000	0.152029	0.184402	19.806892	0.066651
2892.134000	0.152029	0.185037	19.806892	0.066651
2895.114000	0.152029	0.185037	19.806892	0.066651
2898.145000	0.152029	0.185037	19.806892	0.066651
2901.132000	0.152029	0.185037	19.806892	0.066651
2904.123000	0.152029	0.185037	19.806892	0.066651
2907.127000	0.152029	0.184402	19.806259	0.066651
2910.116000	0.152029	0.185037	19.806892	0.066651
2913.124000	0.152029	0.185037	19.806892	0.066651
2916.130000	0.152029	0.184402	19.806892	0.066651
2919.129000	0.152029	0.185037	19.806892	0.066651
2922.179000	0.152029	0.185037	19.806892	0.066651
2925.133000	0.152029	0.185037	19.806892	0.066651
2928.129001	0.152029	0.185037	19.806892	0.066651
2931.167000	0.152029	0.185037	19.806259	0.066651
2934.213000	0.152029	0.185037	19.806892	0.066651
2937.130000	0.152029	0.185037	19.806892	0.066651
2940.119000	0.152029	0.185037	19.806259	0.066651
2943.139000	0.152029	0.185037	19.806259	0.066651
2946.148000	0.152029	0.184402	19.806259	0.066651
2949.120000	0.152029	0.185037	19.806259	0.066651
2952.139000	0.151711	0.185037	19.806259	0.066651
2955.127000	0.152029	0.185037	19.806259	0.066651
2958.127000	0.152029	0.185037	19.806259	0.066651
2961.198000	0.152029	0.184402	19.806259	0.066651
2964.127000	0.152029	0.185037	19.806892	0.066651
2967.127000	0.151711	0.185037	19.806259	0.066651
2970.148000	0.152029	0.184402	19.806259	0.066651
2973.139000	0.152029	0.185037	19.806259	0.066651
2976.132000	0.152029	0.185037	19.806892	0.066651
2979.131000	0.152029	0.184402	19.806892	0.066334
2982.132000	0.152029	0.185037	19.806259	0.066651
2985.140000	0.152029	0.184402	19.806259	0.066651
2988.132000	0.151711	0.185037	19.806259	0.066651
2991.128000	0.152029	0.184402	19.806259	0.066651
2994.133000	0.152029	0.185037	19.805941	0.066651
2997.137001	0.152029	0.185037	19.806259	0.066651
3000.199000	0.152029	0.185037	19.806892	0.066334
3003.195001	0.152029	0.185037	19.806259	0.066651
3006.128000	0.152029	0.185037	19.806892	0.066651
3009.120000	0.152029	0.184402	19.806892	0.066651
3012.140000	0.152029	0.185037	19.806259	0.066651
3015.196000	0.152029	0.185037	19.806259	0.066651
3018.128000	0.152029	0.184402	19.806259	0.066651
3021.121000	0.152029	0.185037	19.806892	0.066651
3024.132000	0.152029	0.184402	19.806259	0.066651
3027.120000	0.152029	0.185037	19.806892	0.066651
3030.128000	0.151711	0.185037	19.806259	0.066651
3033.140000	0.151711	0.184402	19.806892	0.066651
3036.137000	0.152029	0.185037	19.806892	0.066651
3039.128000	0.152029	0.185037	19.806892	0.066651
3042.121000	0.152029	0.185037	19.806892	0.066651
3045.140000	0.151711	0.185037	19.806259	0.066651
3048.204000	0.151711	0.184402	19.806259	0.066651
3051.150000	0.151711	0.184402	19.806259	0.066651
3054.191000	0.152029	0.184402	19.806259	0.066651
3057.129001	0.152029	0.185037	19.806259	0.066651
3060.130000	0.151711	0.185037	19.806259	0.066651
3063.142000	0.152029	0.184402	19.806259	0.066651
3066.130000	0.151711	0.185037	19.806259	0.066651
3069.135000	0.151711	0.185037	19.806259	0.066651
3072.226000	0.151711	0.184402	19.806259	0.066651
3075.196000	0.151711	0.184402	19.806259	0.066651
3078.142000	0.151711	0.185037	19.806259	0.066651
3081.134000	0.151711	0.185037	19.806259	0.066651
3084.131001	0.152029	0.185037	19.805941	0.066651
3087.142000	0.151711	0.185037	19.805941	0.066651
3090.139000	0.152029	0.185037	19.806259	0.066651
3093.130000	0.151711	0.184402	19.806259	0.066651
3096.134000	0.152029	0.185037	19.805941	0.066334
3099.233000	0.151711	0.185037	19.806259	0.066651
3102.159000	0.152029	0.184402	19.806259	0.066651
3105.122001	0.151711	0.185037	19.806259	0.066651
3108.134000	0.151711	0.184402	19.806892	0.066651
3111.131001	0.151711	0.184402	19.805941	0.066651
3114.143000	0.151711	0.185037	19.806259	0.066651
3117.151999	0.152029	0.184402	19.806259	0.066651
3120.206000	0.151711	0.184402	19.806259	0.066651
3123.143000	0.152029	0.185037	19.806259	0.066651
3126.131000	0.151711	0.184402	19.806259	0.066651
3129.131000	0.151711	0.184402	19.806259	0.066651
3132.137001	0.152029	0.184402	19.806259	0.066651
3135.141000	0.152029	0.184402	19.806259	0.066651
3138.136001	0.151711	0.184402	19.806892	0.066651
3141.132000	0.151711	0.184402	19.806259	0.066651
3144.212000	0.151711	0.184402	19.806259	0.066651
3147.190000	0.152029	0.184402	19.806259	0.066651
3150.144001	0.151711	0.184402	19.806259	0.066651
3153.125000	0.151711	0.184402	19.806259	0.066651
3156.145000	0.151711	0.185037	19.806259	0.066334
3159.127000	0.151711	0.185037	19.806259	0.066651
3162.136001	0.151711	0.184402	19.805941	0.066651
3165.135000	0.152029	0.184402	19.806259	0.066334
3168.147000	0.152029	0.184402	19.806259	0.066334
3171.127000	0.151711	0.185037	19.806259	0.066334
3174.135000	0.151711	0.184402	19.806259	0.066651
3177.156000	0.151711	0.184402	19.806259	0.066334
3180.136000	0.151711	0.184402	19.806259	0.066651
3183.190000	0.151711	0.185037	19.806259	0.066334
3186.136001	0.151711	0.184402	19.806259	0.066651
3189.141000	0.151711	0.184402	19.806259	0.066651
3192.137000	0.151711	0.184402	19.806259	0.066334
3195.137000	0.151711	0.185037	19.806259	0.066334
3198.215000	0.151711	0.184402	19.806259	0.066651
3201.198000	0.151711	0.184402	19.806259	0.066651
3204.141000	0.151711	0.185037	19.806259	0.066334
3207.142000	0.151711	0.185037	19.806259	0.066651
3210.130000	0.151711	0.184402	19.806259	0.066651
3213.149000	0.151711	0.185037	19.805941	0.066334
3216.139000	0.151711	0.184402	19.805941	0.066334
3219.138000	0.151711	0.184402	19.805941	0.066651
3222.176000	0.151711	0.185037	19.805941	0.066334
3225.131000	0.151711	0.184402	19.805941	0.066651
3228.138000	0.151711	0.184402	19.805941	0.066334
3231.143000	0.151711	0.184402	19.806259	0.066651
3234.147000	0.151711	0.184402	19.806259	0.066651
3237.151000	0.151711	0.184402	19.806259	0.066334
3240.140000	0.151711	0.185037	19.805941	0.066334
3243.139000	0.151711	0.184402	19.805941	0.066651
3246.139000	0.151711	0.184402	19.806259	0.066651
3249.235000	0.151711	0.184402	19.806259	0.066651
3252.151000	0.151711	0.184402	19.806259	0.066334
3255.132000	0.151711	0.184402	19.806259	0.066334
3258.131000	0.151711	0.184402	19.806259	0.066651
3261.139000	0.152029	0.184402	19.806259	0.066651
3264.143001	0.151711	0.184402	19.806259	0.066334
3267.144001	0.151711	0.184402	19.806259	0.066334
3270.148000	0.151711	0.184402	19.806259	0.066651
3273.132000	0.151711	0.184402	19.806259	0.066334
3276.151999	0.151711	0.184402	19.806259	0.066334
3279.140000	0.151711	0.184402	19.806259	0.066651
3282.154000	0.151711	0.184402	19.805941	0.066651
3285.153000	0.151711	0.184402	19.806259	0.066334
3288.146000	0.151711	0.184402	19.805941	0.066651
3291.157000	0.151711	0.184402	19.805941	0.066651
3294.203001	0.151711	0.184402	19.805941	0.066334
3297.163000	0.151711	0.184402	19.806259	0.066334
3300.134000	0.151711	0.184402	19.806259	0.066334
3303.144000	0.151711	0.184402	19.806259	0.066651
3306.147000	0.151711	0.184402	19.805941	0.066334
3309.223000	0.151711	0.184402	19.806259	0.066651
3312.149000	0.151711	0.184402	19.806259	0.066334
3315.258000	0.151711	0.184402	19.806259	0.066651
3318.145000	0.151711	0.184402	19.806259	0.066334
3321.137000	0.151711	0.184402	19.806259	0.066334
3324.204000	0.151711	0.184402	19.805941	0.066651
3327.149000	0.151711	0.184402	19.805941	0.066334
3330.145000	0.151711	0.184402	19.805941	0.066334
3333.224000	0.151711	0.184402	19.806259	0.066334
3336.138000	0.151711	0.184402	19.805941	0.066334
3339.149000	0.151711	0.184402	19.806259	0.066651
3342.153000	0.151711	0.184402	19.806259	0.066334
3345.145000	0.151711	0.184402	19.806259	0.066334
3348.138000	0.151711	0.184402	19.806259	0.066334
3351.154000	0.151711	0.184402	19.806259	0.066334
3354.150000	0.151711	0.185037	19.805941	0.066334
3357.137001	0.151711	0.184402	19.805941	0.066651
3360.224000	0.151711	0.184402	19.805941	0.066334
3363.165000	0.151711	0.184402	19.806259	0.066334
3366.157000	0.151711	0.184402	19.806259	0.066651
3369.146000	0.151711	0.184402	19.805941	0.066334
3372.201000	0.151711	0.184402	19.805941	0.066334
3375.158000	0.151711	0.184402	19.806259	0.066334
3378.209000	0.151711	0.184402	19.806259	0.066334
3381.164000	0.151711	0.184402	19.805941	0.066334
3384.151000	0.151711	0.184402	19.805941	0.066651
3387.248000	0.151711	0.184402	19.806259	0.066651
3390.157000	0.151711	0.184402	19.806259	0.066651
3393.160000	0.151711	0.184402	19.806259	0.066334
3396.152000	0.151711	0.184402	19.805941	0.066651
3399.151999	0.151711	0.184402	19.805941	0.066334
3402.177000	0.151711	0.184402	19.805941	0.066334
3405.160000	0.151711	0.184402	19.805941	0.066334
3408.261000	0.151711	0.185037	19.805941	0.066334
3411.162000	0.151711	0.184402	19.805941	0.066334
3414.154000	0.151711	0.184402	19.805941	0.066334
3417.143000	0.151711	0.184402	19.805941	0.066651
3420.155001	0.151711	0.184402	19.805941	0.066334
3423.150001	0.151711	0.184402	19.805941	0.066334
3426.162000	0.151711	0.184402	19.805941	0.066334
3429.155000	0.151711	0.184402	19.805941	0.066334
3432.150000	0.151711	0.184402	19.805941	0.066334
3435.176000	0.151711	0.184402	19.805941	0.066334
3438.143000	0.151711	0.184402	19.805941	0.066334
3441.152000	0.151711	0.184402	19.805941	0.066334
3444.158000	0.151711	0.184402	19.805941	0.066334
3447.253000	0.151711	0.184402	19.806259	0.066334
3450.146000	0.151711	0.184402	19.805941	0.066334
3453.165000	0.151711	0.184402	19.805941	0.066334
3456.151999	0.151711	0.184402	19.806259	0.066334
3459.159000	0.151711	0.184402	19.805941	0.066334
3462.154000	0.151711	0.185037	19.805941	0.066334
3465.158000	0.151711	0.184402	19.805941	0.066334
3468.187000	0.151711	0.184402	19.805941	0.066334
3471.154000	0.151711	0.184402	19.806259	0.066334
3474.164000	0.151711	0.184402	19.805941	0.066334
3477.168000	0.151711	0.184402	19.805941	0.066334
3480.156000	0.151711	0.184402	19.805941	0.066334
3483.161000	0.151711	0.184402	19.805941	0.066334
3486.157000	0.151711	0.185037	19.805941	0.066334
3489.157000	0.151711	0.184402	19.805305	0.066334
3492.161000	0.151711	0.184402	19.805305	0.066651
3495.169000	0.151711	0.184402	19.805941	0.066334
3498.263000	0.151711	0.184402	19.805305	0.066651
3501.163000	0.151711	0.184402	19.805305	0.066334
3504.170000	0.151711	0.184402	19.805941	0.066334
3507.158000	0.151711	0.184402	19.805941	0.066334
3510.159000	0.151711	0.184402	19.805941	0.066334
3513.151000	0.151711	0.184402	19.805941	0.066334
3516.184000	0.151711	0.184402	19.805305	0.066334
3519.161000	0.151711	0.185037	19.805941	0.066334
3522.168000	0.151711	0.184402	19.805305	0.066334
3525.161000	0.151711	0.184402	19.805941	0.066334
3528.169001	0.151711	0.184402	19.805305	0.066651
3531.164000	0.151711	0.184402	19.805305	0.066334
3534.172000	0.151711	0.184402	19.805941	0.066334
3537.169000	0.151711	0.184402	19.805941	0.066334
3540.160000	0.151711	0.184402	19.805941	0.066334
3543.160000	0.151711	0.184402	19.805305	0.066334
3546.165000	0.151711	0.184402	19.805305	0.066334
3549.160000	0.151711	0.184402	19.805305	0.066651
3552.153000	0.151711	0.184402	19.805305	0.066651
3555.173000	0.151711	0.184402	19.805305	0.066334
3558.166000	0.151711	0.184402	19.805941	0.066651
3561.166000	0.151711	0.184402	19.805305	0.066334
3564.243000	0.151711	0.184402	19.805305	0.066334
3567.155000	0.151711	0.184402	19.805305	0.066334
3570.154000	0.151711	0.184402	19.805941	0.066334
3573.156000	0.151711	0.184402	19.805305	0.066334
3576.157000	0.151711	0.184402	19.805305	0.066334
3579.172000	0.151711	0.184402	19.805941	0.066334
3582.252000	0.151711	0.184402	19.805305	0.066334
3585.257000	0.151711	0.184402	19.805305	0.066334
3588.169000	0.151711	0.184402	19.805305	0.066334
3591.177001	0.151711	0.184402	19.805941	0.066334
3594.178000	0.151711	0.184402	19.805941	0.066334
3597.177001	0.151711	0.184402	19.805941	0.066334
3600.174000	0.151711	0.184402	19.805941	0.066334
3603.158000	0.151711	0.184402	19.805941	0.066334
3606.169001	0.151394	0.184402	19.805941	0.066334
3609.236000	0.151711	0.184402	19.805941	0.066334
3612.166000	0.151711	0.184402	19.805305	0.066334
3615.173000	0.151711	0.184402	19.805941	0.066334
3618.268000	0.151711	0.184402	19.805941	0.066334
3621.165000	0.151394	0.184402	19.805305	0.066334
3624.177001	0.151711	0.184402	19.805305	0.066334
3627.165000	0.151394	0.184402	19.805941	0.066334
3630.178000	0.151711	0.184402	19.805305	0.066334
3633.159000	0.151711	0.184402	19.805305	0.066334
3636.158000	0.151711	0.184402	19.805305	0.066334
3639.240000	0.151711	0.184402	19.805305	0.066334
3642.166000	0.151711	0.184402	19.805305	0.066334
3645.220000	0.151711	0.184402	19.805305	0.066334
3648.191000	0.151711	0.184402	19.805305	0.066334
3651.159000	0.151711	0.184402	19.805305	0.066334
3654.247001	0.151394	0.184402	19.805305	0.066334
3657.179000	0.151711	0.184402	19.805305	0.066334
3660.254000	0.151711	0.184402	19.805941	0.066334
3663.167000	0.151711	0.184402	19.805305	0.066334
3666.167000	0.151711	0.184402	19.805941	0.066334
3669.167000	0.151711	0.184402	19.805941	0.066334
3672.167000	0.151711	0.184402	19.805305	0.066334
3675.171000	0.151711	0.184402	19.805305	0.066334
3678.277000	0.151711	0.184402	19.805305	0.066334
3681.169001	0.151711	0.184402	19.805305	0.066334
3684.169001	0.151711	0.184402	19.805305	0.066334
3687.179000	0.151711	0.184402	19.804989	0.066334
3690.188000	0.151711	0.184402	19.805305	0.066334
3693.168000	0.151394	0.184402	19.805305	0.066334
3696.177001	0.151394	0.184402	19.805305	0.066334
3699.176000	0.151711	0.184402	19.805305	0.066334
3702.181001	0.151394	0.184402	19.805305	0.066334
3705.178000	0.151711	0.184402	19.805305	0.066334
3708.166001	0.151711	0.184402	19.805305	0.066334
3711.182000	0.151711	0.184402	19.805941	0.066334
3714.228000	0.151711	0.184402	19.805305	0.066334
3717.202000	0.151711	0.184402	19.805305	0.066334
3720.287000	0.151711	0.184402	19.805305	0.066334
3723.166000	0.151711	0.184402	19.805305	0.066334
3726.179000	0.151711	0.184402	19.805305	0.066334
3729.203001	0.151394	0.184402	19.805305	0.066334
3732.179000	0.151394	0.184085	19.805305	0.066334
3735.201000	0.151711	0.184402	19.805305	0.066334
3738.180000	0.151711	0.184402	19.805305	0.066334
3741.175000	0.151394	0.184402	19.805305	0.066334
3744.175000	0.151711	0.184402	19.805305	0.066334
3747.242000	0.151394	0.184402	19.805305	0.066334
3750.176000	0.151711	0.184402	19.805305	0.066334
3753.200000	0.151711	0.184402	19.805305	0.066334
3756.250000	0.151394	0.184402	19.805305	0.066334
3759.175000	0.151394	0.184402	19.805305	0.066334
3762.179000	0.151394	0.184402	19.805305	0.066334
3765.253000	0.151394	0.184402	19.804989	0.066334
3768.175000	0.151394	0.184402	19.805305	0.066334
3771.179000	0.151394	0.184402	19.805305	0.066334
3774.175000	0.151394	0.184402	19.805305	0.066334
3777.184000	0.151394	0.184402	19.805305	0.066334
3780.189000	0.151711	0.184402	19.805305	0.066334
3783.176001	0.151711	0.184402	19.805305	0.066334
3786.271000	0.151711	0.184402	19.805305	0.066334
3789.177000	0.151394	0.184402	19.804989	0.066334
3792.169000	0.151394	0.184402	19.805305	0.066334
3795.186000	0.151394	0.184085	19.804989	0.066334
3798.233000	0.151394	0.184402	19.804989	0.066334
3801.200000	0.151711	0.184402	19.804989	0.066334
3804.178000	0.151394	0.184402	19.805305	0.066334
3807.248000	0.151394	0.184402	19.804989	0.066334
3810.195001	0.151394	0.184402	19.805305	0.066334
3813.292000	0.151711	0.184402	19.804989	0.066334
3816.263000	0.151394	0.184085	19.804989	0.066334
3819.186000	0.151394	0.184402	19.804989	0.066334
3822.189000	0.151394	0.184402	19.804989	0.066334
3825.175000	0.151394	0.184085	19.805305	0.066334
3828.182000	0.151394	0.184402	19.805305	0.066334
3831.183000	0.151394	0.184402	19.805305	0.066334
3834.175000	0.151394	0.184402	19.805305	0.066334
3837.287001	0.151394	0.184402	19.805305	0.066334
3840.175000	0.151394	0.184402	19.804989	0.066334
3843.187000	0.151394	0.184085	19.804989	0.066334
3846.282000	0.151394	0.184402	19.805305	0.066334
3849.221000	0.151394	0.184402	19.805305	0.066334
3852.195000	0.151711	0.184402	19.805305	0.066334
3855.177001	0.151394	0.184402	19.805305	0.066334
3858.184000	0.151394	0.184402	19.804989	0.066334
3861.188001	0.151711	0.184402	19.805305	0.066334
3864.297000	0.151394	0.184402	19.804989	0.066334
3867.190000	0.151394	0.184402	19.804989	0.066334
3870.179000	0.151394	0.184402	19.804989	0.066334
3873.191000	0.151394	0.184402	19.804989	0.066334
3876.202000	0.151394	0.184085	19.804672	0.066334
3879.178000	0.151394	0.184402	19.804989	0.066334
3882.192000	0.151711	0.184402	19.804989	0.066334
3885.191000	0.151394	0.184085	19.804989	0.066334
3888.199000	0.151711	0.184402	19.804989	0.066334
3891.200000	0.151394	0.184402	19.804989	0.066334
3894.200000	0.151711	0.184402	19.804989	0.066334
3897.300000	0.151394	0.184402	19.804989	0.066334
3900.188000	0.151394	0.184402	19.805305	0.066334
3903.180000	0.151394	0.184402	19.804989	0.066334
3906.188000	0.151394	0.184085	19.805305	0.066334
3909.200000	0.151394	0.184402	19.805305	0.066334
3912.192000	0.151394	0.184402	19.804989	0.066334
3915.192001	0.151394	0.184402	19.805305	0.066334
3918.254001	0.151394	0.184402	19.804989	0.066334
3921.197000	0.151394	0.184402	19.804989	0.066334
3924.187000	0.151394	0.184085	19.804989	0.066334
3927.195000	0.151394	0.184085	19.804989	0.066334
3930.204000	0.151394	0.184402	19.804989	0.066334
3933.204000	0.151394	0.184402	19.804989	0.066334
3936.226000	0.151394	0.184402	19.805305	0.066334
3939.204000	0.151394	0.184402	19.804989	0.066334
3942.185000	0.151394	0.184402	19.804989	0.066334
3945.234000	0.151394	0.184085	19.805305	0.066334
3948.196000	0.151394	0.184085	19.804989	0.066334
3951.196000	0.151394	0.184085	19.805305	0.066334
3954.196000	0.151394	0.184402	19.804989	0.066334
3957.196000	0.151394	0.184085	19.805305	0.065699
3960.201000	0.151394	0.184085	19.804989	0.066334
3963.304000	0.151394	0.184402	19.804989	0.066334
3966.201000	0.151394	0.184085	19.804989	0.066334
3969.223001	0.151394	0.184402	19.805305	0.066334
3972.198000	0.151394	0.184402	19.804989	0.066334
3975.198000	0.151394	0.184085	19.805305	0.066334
3978.252000	0.151394	0.184402	19.804989	0.066334
3981.205000	0.151394	0.184085	19.804989	0.066334
3984.201000	0.151394	0.184085	19.804989	0.066334
3987.185000	0.151394	0.184085	19.804989	0.066334
3990.217000	0.151394	0.184085	19.804672	0.066334
3993.272000	0.151394	0.184085	19.804989	0.066334
3996.290000	0.151394	0.184085	19.804989	0.066334
3999.207000	0.151394	0.184085	19.804989	0.066334
4002.257000	0.151394	0.184085	19.804989	0.066334
4005.278000	0.151394	0.184085	19.804989	0.066334
4008.205000	0.151394	0.184402	19.804989	0.065699
4011.189000	0.151394	0.184085	19.804672	0.066334
4014.258000	0.151394	0.184085	19.804989	0.066334
4017.196000	0.151394	0.184402	19.804989	0.066334
4020.209001	0.151394	0.184402	19.804989	0.066334
4023.205000	0.151394	0.184085	19.804989	0.066334
4026.201000	0.151394	0.184402	19.804989	0.066334
4029.205000	0.151394	0.184085	19.804989	0.066334
4032.206000	0.151394	0.184085	19.804989	0.066334
4035.209000	0.151394	0.184402	19.804989	0.066334
4038.209000	0.151394	0.184085	19.804672	0.066334
4041.209000	0.151394	0.184402	19.804989	0.066334
4044.201000	0.151394	0.184402	19.804989	0.066334
4047.201000	0.151394	0.184085	19.804989	0.066334
4050.280000	0.151394	0.184402	19.804989	0.066334
4053.205000	0.151394	0.184085	19.804989	0.066334
4056.276000	0.151394	0.184085	19.804672	0.066334
4059.209000	0.151394	0.184085	19.804672	0.066334
4062.201000	0.151394	0.184402	19.804672	0.066334
4065.301000	0.151394	0.184402	19.804989	0.066334
4068.289000	0.151394	0.184402	19.804989	0.066334
4071.288001	0.151394	0.184085	19.804989	0.066334
4074.217000	0.151394	0.184402	19.804989	0.066334
4077.197000	0.151394	0.184085	19.804989	0.065699
4080.202000	0.151394	0.184402	19.804672	0.066334
4083.209000	0.151394	0.184085	19.804989	0.066334
4086.190000	0.151394	0.184402	19.804989	0.066334
4089.251000	0.151394	0.184402	19.804989	0.065699
4092.202000	0.151394	0.184402	19.804989	0.066334
4095.202001	0.151394	0.184085	19.804672	0.066334
4098.203001	0.151394	0.184085	19.804672	0.066334
4101.210999	0.151394	0.184402	19.804672	0.066334
4104.210000	0.151394	0.184402	19.804672	0.066334
4107.203000	0.151394	0.184402	19.804672	0.066334
4110.203001	0.151394	0.184402	19.804672	0.065699
4113.219000	0.151394	0.184085	19.804672	0.066334
4116.265000	0.151394	0.184085	19.804672	0.066334
4119.294000	0.151394	0.184402	19.804672	0.066334
4122.199000	0.151394	0.184085	19.804672	0.066334
4125.270000	0.151394	0.184402	19.804672	0.066334
4128.258000	0.151394	0.184085	19.804672	0.066334
4131.207000	0.151394	0.184085	19.804672	0.066334
4134.199000	0.151394	0.184085	19.804672	0.066334
4137.192000	0.151394	0.184085	19.804672	0.066334
4140.192000	0.151394	0.184085	19.804672	0.066334
4143.250000	0.151394	0.184085	19.804672	0.065699
4146.192000	0.151394	0.184085	19.804672	0.066334
4149.205000	0.151394	0.184402	19.804672	0.066334
4152.254000	0.151394	0.184085	19.804672	0.066334
4155.209000	0.151394	0.184085	19.804989	0.066334
4158.209000	0.151394	0.184085	19.804672	0.066334
4161.308000	0.151394	0.184085	19.804672	0.066334
4164.200000	0.151394	0.184085	19.804672	0.065699
4167.193000	0.151394	0.184402	19.804672	0.065699
4170.213000	0.151394	0.184085	19.804672	0.066334
4173.194000	0.151394	0.184402	19.804672	0.066334
4176.213000	0.151394	0.184085	19.804989	0.066334
4179.242000	0.151394	0.184085	19.804672	0.066334
4182.218000	0.151394	0.184402	19.804989	0.065699
4185.201000	0.151394	0.184402	19.804672	0.066334
4188.210000	0.151394	0.184085	19.804672	0.065699
4191.193000	0.151394	0.184402	19.804672	0.066334
4194.209000	0.151394	0.184085	19.804672	0.066334
4197.194000	0.151394	0.184085	19.804672	0.066334
4200.193000	0.151394	0.184085	19.804672	0.066334
4203.218001	0.151394	0.184402	19.804672	0.065699
4206.213000	0.151394	0.184085	19.804672	0.066334
4209.280000	0.151394	0.184085	19.804672	0.065699
4212.210000	0.151394	0.184402	19.804989	0.065699
4215.226000	0.151394	0.184085	19.804672	0.065699
4218.218000	0.151394	0.184085	19.804672	0.066334
4221.201000	0.151394	0.184402	19.804672	0.065699
4224.194000	0.151394	0.184085	19.804672	0.066334
4227.201000	0.151394	0.184085	19.804672	0.066334
4230.308000	0.151394	0.184085	19.804989	0.065699
4233.267000	0.151394	0.184085	19.804672	0.066334
4236.222000	0.151394	0.184402	19.804672	0.066334
4239.214000	0.151394	0.184085	19.804672	0.065699
4242.202000	0.151394	0.184085	19.804672	0.066334
4245.214000	0.151394	0.184085	19.804672	0.066334
4248.293000	0.151394	0.184085	19.804672	0.065699
4251.202001	0.151394	0.184085	19.804672	0.066334
4254.280001	0.151394	0.184085	19.804672	0.065699
4257.202000	0.151394	0.184085	19.804672	0.065699
4260.231000	0.151394	0.184085	19.804354	0.065699
4263.211000	0.151394	0.184085	19.804672	0.066334
4266.252000	0.151394	0.184085	19.804672	0.066334
4269.194000	0.151394	0.184085	19.804672	0.065699
4272.215000	0.151394	0.184402	19.804672	0.066334
4275.285000	0.151394	0.184085	19.804672	0.066334
4278.213000	0.151394	0.184085	19.804672	0.066334
4281.204000	0.151394	0.184085	19.804672	0.065699
4284.204000	0.151077	0.184085	19.804672	0.065699
4287.316000	0.151394	0.184085	19.804672	0.065699
4290.208000	0.151394	0.184085	19.804672	0.066334
4293.267000	0.151394	0.184402	19.804672	0.066334
4296.204000	0.151394	0.184085	19.804672	0.066334
4299.204000	0.151394	0.184085	19.804672	0.065699
4302.205000	0.151394	0.184085	19.804672	0.066334
4305.209001	0.151394	0.184085	19.804672	0.066334
4308.225000	0.151394	0.184085	19.804672	0.065699
4311.214000	0.151394	0.184085	19.804989	0.065699
4314.209000	0.151394	0.184085	19.804672	0.066334
4317.209000	0.151394	0.184085	19.804672	0.065699
4320.199000	0.151394	0.184085	19.804672	0.066334
4323.211000	0.151394	0.184085	19.804672	0.066334
4326.208000	0.151394	0.184402	19.804989	0.065699
4329.209001	0.151394	0.184402	19.804672	0.066334
4332.250000	0.151394	0.184085	19.804672	0.066334
4335.212000	0.151394	0.184085	19.804672	0.066334
4338.212000	0.151394	0.184085	19.804672	0.066334
4341.221000	0.151394	0.184085	19.804672	0.066334
4344.201000	0.151394	0.184402	19.804672	0.066334
4347.220000	0.151394	0.184085	19.804354	0.066334
4350.220000	0.151394	0.184085	19.804672	0.066334
4353.217000	0.151394	0.184402	19.804989	0.066334
4356.296000	0.151394	0.184085	19.804672	0.065699
4359.220000	0.151394	0.184085	19.804672	0.065699
4362.220000	0.151394	0.184402	19.804989	0.065699
4365.220000	0.151394	0.184402	19.804989	0.066334
4368.208000	0.151394	0.184085	19.804989	0.066334
4371.220000	0.151394	0.184085	19.804672	0.066334
4374.201000	0.151394	0.184402	19.804989	0.066334
4377.213000	0.151394	0.184085	19.804672	0.066334
4380.214001	0.151394	0.184085	19.804989	0.065699
4383.213000	0.151394	0.184402	19.804989	0.065699
4386.221000	0.151394	0.184085	19.804672	0.065699
4389.202000	0.151394	0.184085	19.804672	0.065699
4392.213000	0.151394	0.184085	19.804672	0.065699
4395.213000	0.151394	0.184085	19.804672	0.066334
4398.291000	0.151394	0.184085	19.804672	0.065699
4401.201000	0.151394	0.184085	19.804672	0.065699
4404.201000	0.151394	0.184085	19.804672	0.065699
4407.296000	0.151394	0.184402	19.804672	0.065699
4410.202001	0.151394	0.184085	19.804672	0.065699
4413.221000	0.151394	0.184085	19.804672	0.066334
4416.202000	0.151394	0.184085	19.804672	0.066334
4419.203000	0.151394	0.184085	19.804989	0.066334
4422.215000	0.151394	0.184402	19.804672	0.065699
4425.286000	0.151394	0.184085	19.804989	0.066334
4428.210001	0.151394	0.184085	19.804672	0.066334
4431.214001	0.151394	0.184085	19.804989	0.066334
4434.210001	0.151394	0.184085	19.804672	0.066334
4437.222000	0.151394	0.184085	19.804672	0.066334
4440.202000	0.151394	0.184085	19.804672	0.065699
4443.290000	0.151394	0.184085	19.804672	0.066334
4446.210000	0.151394	0.184085	19.804672	0.065699
4449.214000	0.151394	0.184085	19.804672	0.065699
4452.317000	0.151394	0.184085	19.804672	0.065699
4455.269001	0.151394	0.184085	19.804672	0.065699
4458.226000	0.151394	0.184402	19.804672	0.065699
4461.219000	0.151394	0.184085	19.804672	0.065699
4464.214000	0.151394	0.184085	19.804672	0.065699
4467.227000	0.151394	0.184085	19.804989	0.065699
4470.219000	0.151394	0.184085	19.804672	0.065699
4473.215000	0.151394	0.184085	19.804672	0.065699
4476.216000	0.151394	0.184085	19.804672	0.065699
4479.211000	0.151394	0.184085	19.804672	0.065699
4482.228000	0.151394	0.184085	19.804672	0.065699
4485.216000	0.151394	0.184085	19.804672	0.065699
4488.223001	0.151394	0.184402	19.804989	0.065699
4491.210999	0.151394	0.184085	19.804672	0.065699
4494.286000	0.151394	0.184085	19.804672	0.065699
4497.224000	0.151394	0.184085	19.804672	0.066334
4500.215000	0.151394	0.184085	19.804672	0.065699
4503.220000	0.151394	0.184085	19.804672	0.065699
4506.204000	0.151394	0.184085	19.804672	0.065699
4509.220000	0.151394	0.184085	19.804672	0.065699
4512.215000	0.151394	0.184085	19.804672	0.066334
4515.295001	0.151394	0.184085	19.804672	0.065699
4518.223000	0.151394	0.184085	19.804672	0.065699
4521.216000	0.151394	0.184085	19.804672	0.065699
4524.223000	0.151394	0.184085	19.804989	0.065699
4527.232000	0.151394	0.184085	19.804672	0.065699
4530.211000	0.151394	0.184085	19.804672	0.065699
4533.212000	0.151394	0.184085	19.804672	0.066334
4536.216000	0.151394	0.184085	19.804672	0.065699
4539.204000	0.151394	0.184085	19.804672	0.065699
4542.217000	0.151394	0.184085	19.804672	0.065699
4545.313000	0.151394	0.184085	19.804672	0.065699
4548.295000	0.151077	0.184085	19.804672	0.065699
4551.212000	0.151077	0.184085	19.804672	0.065699
4554.204000	0.151077	0.184085	19.804672	0.065699
4557.212000	0.151394	0.184085	19.804672	0.065699
4560.305000	0.151077	0.184085	19.804672	0.065699
4563.212000	0.151394	0.184085	19.804989	0.065699
4566.324000	0.151077	0.184085	19.804989	0.065699
4569.228000	0.151077	0.184085	19.804672	0.065699
4572.271000	0.151394	0.184085	19.804672	0.066334
4575.216000	0.151077	0.184085	19.804672	0.065699
4578.212000	0.151394	0.184085	19.804672	0.065699
4581.312000	0.151394	0.184085	19.804672	0.065699
4584.296000	0.151077	0.184085	19.804672	0.065699
4587.212000	0.151394	0.184085	19.804672	0.065699
4590.237000	0.151077	0.184085	19.804672	0.065699
4593.257000	0.151077	0.184085	19.804989	0.065699
4596.287000	0.151394	0.184085	19.804672	0.065699
4599.205000	0.151394	0.184085	19.804672	0.065699
4602.220000	0.151077	0.184085	19.804672	0.065699
4605.233000	0.151394	0.184085	19.804672	0.065699
4608.319000	0.151394	0.184085	19.804672	0.065699
4611.221001	0.151394	0.184085	19.804672	0.065699
4614.212000	0.151394	0.184085	19.804672	0.065699
4617.212000	0.151394	0.184085	19.804672	0.065699
4620.216000	0.151394	0.184085	19.804672	0.065699
4623.320000	0.151394	0.184085	19.804354	0.065699
4626.290000	0.151077	0.184085	19.804672	0.065699
4629.213000	0.151077	0.184085	19.804672	0.065699
4632.222000	0.151077	0.184085	19.804354	0.065699
4635.213000	0.151077	0.184085	19.804672	0.065699
4638.304000	0.151077	0.184085	19.804672	0.065699
4641.235001	0.151077	0.184085	19.804672	0.065699
4644.225001	0.151394	0.184085	19.804672	0.065699
4647.218000	0.151077	0.184085	19.804672	0.065699
4650.231000	0.151077	0.184085	19.804354	0.065699
4653.218000	0.151077	0.184085	19.804672	0.065699
4656.231000	0.151394	0.184085	19.804672	0.066334
4659.206000	0.151394	0.184085	19.804672	0.065699
4662.214001	0.151077	0.184085	19.804672	0.065699
4665.259000	0.151394	0.184085	19.804672	0.065699
4668.238000	0.151077	0.184085	19.804672	0.065699
4671.206000	0.151394	0.184085	19.804354	0.065699
4674.240000	0.151077	0.184085	19.804672	0.065699
4677.297000	0.151077	0.184085	19.804672	0.065699
4680.218000	0.151394	0.184085	19.804672	0.065699
4683.220000	0.151394	0.184085	19.804672	0.065699
4686.227000	0.151077	0.184085	19.804672	0.065699
4689.208000	0.151077	0.184085	19.804354	0.065699
4692.215000	0.151394	0.184085	19.804354	0.065699
4695.217000	0.151077	0.184085	19.804672	0.065699
4698.224000	0.151077	0.184085	19.804672	0.065699
4701.220000	0.151077	0.184085	19.804672	0.065699
4704.220000	0.151077	0.184085	19.804354	0.065699
4707.234000	0.151077	0.184085	19.804672	0.065699
4710.210001	0.151077	0.184085	19.804672	0.065699
4713.238000	0.151077	0.184085	19.804354	0.065699
4716.226000	0.151077	0.184085	19.804672	0.065699
4719.221001	0.151077	0.184085	19.804354	0.065699
4722.305000	0.151394	0.184085	19.804672	0.065699
4725.218000	0.151077	0.184085	19.804354	0.065699
4728.220000	0.151077	0.184085	19.804672	0.065699
4731.224000	0.151394	0.184085	19.804672	0.065699
4734.212000	0.151394	0.184085	19.804672	0.065699
4737.223000	0.151077	0.184085	19.804354	0.065699
4740.219000	0.151077	0.184085	19.804354	0.065699
4743.326000	0.151077	0.184085	19.804672	0.065699
4746.223000	0.151077	0.184085	19.804354	0.065699
4749.243999	0.151394	0.184085	19.804672	0.065699
4752.283000	0.151077	0.184085	19.804672	0.065699
4755.220000	0.151394	0.184085	19.804354	0.065699
4758.220000	0.151077	0.184085	19.804354	0.065699
4761.220000	0.151394	0.184085	19.804672	0.065699
4764.220000	0.151394	0.184085	19.804354	0.065699
4767.255000	0.151394	0.184085	19.804672	0.065699
4770.226000	0.151394	0.184085	19.804354	0.066334
4773.283000	0.151077	0.184085	19.804672	0.065699
4776.243000	0.151394	0.184085	19.804354	0.065699
4779.226000	0.151077	0.184085	19.804354	0.065699
4782.230000	0.151077	0.184085	19.804672	0.065699
4785.221000	0.151394	0.184085	19.804672	0.065699
4788.266000	0.151077	0.184085	19.804672	0.065699
4791.221000	0.151077	0.184085	19.804354	0.065699
4794.221001	0.151394	0.184085	19.804672	0.065699
4797.225000	0.151394	0.184085	19.804672	0.065699
4800.221001	0.151077	0.184085	19.804672	0.065699
4803.247000	0.151077	0.184085	19.804354	0.065699
4806.226000	0.151077	0.184085	19.804672	0.065699
4809.222000	0.151077	0.184085	19.804672	0.065699
4812.214000	0.151394	0.184085	19.804354	0.065699
4815.215000	0.151394	0.184085	19.804672	0.065699
4818.264000	0.151394	0.184085	19.804672	0.065699
4821.228001	0.151077	0.184085	19.804354	0.065699
4824.336001	0.151394	0.184085	19.804672	0.065699
4827.243000	0.151394	0.184085	19.804354	0.065699
4830.223000	0.151394	0.184085	19.804672	0.065699
4833.223000	0.151077	0.184085	19.804354	0.065699
4836.228000	0.151077	0.184085	19.804354	0.065699
4839.237000	0.151077	0.184085	19.804672	0.065699
4842.215000	0.151077	0.184085	19.804672	0.065699
4845.220000	0.151394	0.184085	19.804672	0.065699
4848.312000	0.151077	0.184085	19.804672	0.065699
4851.238000	0.151077	0.184085	19.804672	0.065699
4854.225000	0.151077	0.184085	19.804672	0.065699
4857.299000	0.151077	0.184085	19.804672	0.065699
4860.229000	0.151077	0.184085	19.804354	0.065699
4863.229001	0.151077	0.184085	19.804354	0.065699
4866.225000	0.151077	0.184085	19.804672	0.065699
4869.234000	0.151394	0.184085	19.804672	0.065699
4872.237000	0.151077	0.184085	19.804354	0.065699
4875.313001	0.151077	0.184085	19.804672	0.065699
4878.306001	0.151077	0.184085	19.804354	0.065699
4881.225000	0.151077	0.184085	19.804672	0.065699
4884.229000	0.151394	0.184085	19.804354	0.065699
4887.225000	0.151077	0.184085	19.804354	0.065699
4890.225000	0.151394	0.184085	19.804354	0.065699
4893.227000	0.151077	0.184085	19.804354	0.065699
4896.236001	0.151077	0.184085	19.804354	0.065699
4899.236001	0.151077	0.184085	19.804354	0.065699
4902.227000	0.151077	0.184085	19.804354	0.065699
4905.253000	0.151077	0.184085	19.804672	0.065699
4908.231000	0.151077	0.184085	19.804354	0.065699
4911.229000	0.151394	0.184085	19.804672	0.065699
4914.240000	0.151077	0.184085	19.804354	0.065699
4917.228000	0.151077	0.184085	19.804354	0.065699
4920.237000	0.151394	0.184085	19.804354	0.065699
4923.220000	0.151077	0.184085	19.804354	0.065699
4926.228001	0.151077	0.184085	19.804354	0.065699
4929.290000	0.151394	0.184085	19.804354	0.065699
4932.228000	0.151077	0.184085	19.804354	0.065699
4935.302999	0.151077	0.184085	19.804672	0.065699
4938.228000	0.151077	0.184085	19.804354	0.065699
4941.260000	0.151077	0.184085	19.804354	0.065699
4944.244000	0.151077	0.184085	19.804354	0.065699
4947.237000	0.151077	0.184085	19.804354	0.065699
4950.234000	0.151077	0.184085	19.804354	0.065699
4953.228001	0.151077	0.184085	19.804354	0.065699
4956.233000	0.151077	0.184085	19.804354	0.065699
4959.222000	0.151077	0.184085	19.804354	0.065699
4962.234000	0.151077	0.184085	19.804354	0.065699
4965.341000	0.151077	0.184085	19.804354	0.065699
4968.222000	0.151077	0.184085	19.804354	0.065699
4971.243001	0.151077	0.184085	19.804354	0.065699
4974.239000	0.151394	0.184085	19.804354	0.065699
4977.231000	0.151077	0.184085	19.804354	0.065699
4980.234000	0.151394	0.184085	19.804354	0.065699
4983.230000	0.151077	0.184085	19.804354	0.065699
4986.246000	0.151077	0.184085	19.804354	0.065699
4989.230000	0.151394	0.184085	19.804354	0.065699
4992.230000	0.151077	0.184085	19.804672	0.065699
4995.222000	0.151077	0.184085	19.804354	0.065699
4998.230000	0.151077	0.184085	19.804672	0.065699
5001.235000	0.151077	0.184085	19.804354	0.065699
5004.247001	0.151077	0.184085	19.804354	0.065699
5007.247001	0.151077	0.184085	19.804354	0.065699
5010.230000	0.151394	0.184085	19.804354	0.065699
5013.242000	0.151077	0.184085	19.804672	0.065699
5016.250000	0.151077	0.184085	19.804037	0.065699
5019.230000	0.151077	0.184085	19.804354	0.065699
5022.242000	0.151394	0.184085	19.804354	0.065699
5025.250000	0.151077	0.184085	19.804037	0.065699
5028.222000	0.151394	0.184085	19.804354	0.065699
5031.230000	0.151077	0.184085	19.804354	0.065699
5034.223001	0.151077	0.184085	19.804354	0.065699
5037.223000	0.151077	0.184085	19.804354	0.065699
5040.256000	0.151077	0.184085	19.804037	0.065699
5043.302000	0.151077	0.184085	19.804354	0.065699
5046.257000	0.151077	0.184085	19.804354	0.065699
5049.315000	0.151077	0.184085	19.804354	0.065699
5052.303000	0.151077	0.184085	19.804354	0.065699
5055.233000	0.151077	0.184085	19.804354	0.065699
5058.232000	0.151077	0.184085	19.804354	0.065699
5061.224000	0.151077	0.184085	19.804037	0.065699
5064.237000	0.151077	0.184085	19.804354	0.065699
5067.249000	0.151077	0.184085	19.804354	0.065699
5070.237000	0.151077	0.184085	19.804354	0.065699
5073.324000	0.151077	0.184085	19.804037	0.065699
5076.241000	0.151077	0.184085	19.804354	0.065699
5079.232000	0.151077	0.184085	19.804354	0.065699
5082.272000	0.151077	0.184085	19.804354	0.065699
5085.226000	0.151077	0.184085	19.804354	0.065699
5088.234000	0.151077	0.184085	19.804037	0.065699
5091.226000	0.151077	0.184085	19.804037	0.065699
5094.226000	0.151077	0.184085	19.804354	0.065699
5097.238000	0.151077	0.184085	19.804354	0.065699
5100.240000	0.151077	0.184085	19.804354	0.065699
5103.235000	0.151077	0.183767	19.804354	0.065382
5106.235000	0.151077	0.184085	19.804354	0.065699
5109.235001	0.151077	0.184085	19.804354	0.065699
5112.253000	0.151077	0.184085	19.804354	0.065699
5115.257000	0.151077	0.184085	19.804354	0.065699
5118.238000	0.151077	0.184085	19.804354	0.065699
5121.335000	0.151077	0.184085	19.804354	0.065699
5124.252000	0.151077	0.184085	19.804354	0.065699
5127.239000	0.151077	0.184085	19.804354	0.065699
5130.244000	0.151077	0.184085	19.804354	0.065699
5133.244000	0.151077	0.184085	19.804354	0.065699
5136.244000	0.151077	0.184085	19.804354	0.065699
5139.243000	0.151077	0.184085	19.804354	0.065699
5142.239000	0.151077	0.184085	19.804037	0.065699
5145.239000	0.151077	0.184085	19.804354	0.065699
5148.239000	0.151077	0.184085	19.804354	0.065699
5151.239000	0.151077	0.184085	19.804037	0.065699
5154.239000	0.151077	0.184085	19.804354	0.065699
5157.316000	0.151077	0.184085	19.804354	0.065699
5160.240001	0.151077	0.184085	19.804354	0.065699
5163.269001	0.151077	0.184085	19.804354	0.065699
5166.277000	0.151077	0.183767	19.804354	0.065699
5169.240000	0.151077	0.184085	19.804672	0.065699
5172.249000	0.151077	0.184085	19.804672	0.065699
5175.298000	0.151077	0.184085	19.804354	0.065699
5178.302001	0.151077	0.184085	19.804354	0.065699
5181.240001	0.151077	0.184085	19.804354	0.065699
5184.257000	0.151077	0.184085	19.804354	0.065382
5187.261001	0.151077	0.184085	19.804354	0.065699
5190.240001	0.151077	0.184085	19.804354	0.065699
5193.331000	0.151077	0.184085	19.804354	0.065699
5196.242000	0.151077	0.184085	19.804354	0.065699
5199.246000	0.151077	0.184085	19.804354	0.065699
5202.235000	0.151077	0.184085	19.804354	0.065699
5205.235000	0.151077	0.184085	19.804354	0.065699
5208.246000	0.151077	0.184085	19.804354	0.065699
5211.297000	0.151077	0.184085	19.804354	0.065699
5214.246000	0.151077	0.183767	19.804354	0.065699
5217.310000	0.151077	0.184085	19.804354	0.065699
5220.243000	0.151077	0.184085	19.804037	0.065382
5223.235000	0.151077	0.184085	19.804354	0.065699
5226.245000	0.151077	0.184085	19.804354	0.065382
5229.245000	0.151077	0.184085	19.804037	0.065699
5232.262001	0.151077	0.184085	19.804354	0.065699
5235.245000	0.151077	0.183767	19.804354	0.065699
5238.357000	0.151077	0.184085	19.804354	0.065699
5241.251001	0.151077	0.184085	19.804354	0.065699
5244.246000	0.151077	0.184085	19.804354	0.065382
5247.238000	0.151077	0.184085	19.804037	0.065382
5250.255000	0.151077	0.184085	19.804354	0.065699
5253.246000	0.151077	0.184085	19.804354	0.065699
5256.251000	0.151077	0.184085	19.804354	0.065699
5259.300000	0.151077	0.184085	19.804037	0.065699
5262.246000	0.151077	0.184085	19.804037	0.065699
5265.239000	0.151077	0.184085	19.804037	0.065699
5268.247001	0.151077	0.184085	19.804354	0.065699
5271.263000	0.151077	0.184085	19.804037	0.065699
5274.313000	0.151077	0.184085	19.804037	0.065699
5277.251000	0.151077	0.184085	19.804354	0.065699
5280.256000	0.151077	0.184085	19.804354	0.065699
5283.248000	0.151077	0.184085	19.804354	0.065699
5286.251000	0.151077	0.184085	19.804354	0.065699
5289.306001	0.151077	0.184085	19.804354	0.065699
5292.260000	0.151077	0.183767	19.804037	0.065699
5295.256000	0.151077	0.184085	19.804037	0.065699
5298.268000	0.151077	0.184085	19.804037	0.065699
5301.259000	0.151077	0.183767	19.804037	0.065699
5304.248000	0.151077	0.184085	19.804037	0.065699
5307.251000	0.151077	0.184085	19.804354	0.065699
5310.248000	0.151077	0.184085	19.804037	0.065699
5313.251000	0.151077	0.184085	19.804037	0.065699
5316.248000	0.151077	0.184085	19.804354	0.065699
5319.318000	0.151077	0.183767	19.804037	0.065699
5322.248000	0.151077	0.184085	19.804354	0.065699
5325.247000	0.151077	0.183767	19.804354	0.065699
5328.305000	0.151077	0.184085	19.804354	0.065699
5331.247000	0.151077	0.184085	19.804354	0.065699
5334.334000	0.151077	0.184085	19.804037	0.065699
5337.239000	0.151077	0.183767	19.804354	0.065699
5340.260000	0.151077	0.184085	19.804354	0.065699
5343.247001	0.151077	0.183767	19.804354	0.065699
5346.247000	0.151077	0.184085	19.804037	0.065699
5349.248000	0.151077	0.183767	19.804037	0.065699
5352.276000	0.151077	0.184085	19.804354	0.065699
5355.335000	0.151077	0.183767	19.804037	0.065699
5358.248000	0.151077	0.183767	19.804037	0.065699
5361.248000	0.151077	0.184085	19.804354	0.065699
5364.307000	0.151077	0.184085	19.804354	0.065699
5367.248000	0.151077	0.184085	19.804354	0.065699
5370.249001	0.151077	0.184085	19.804354	0.065699
5373.241000	0.151077	0.183767	19.804354	0.065382
5376.253000	0.151077	0.184085	19.804037	0.065699
5379.255000	0.151077	0.183767	19.804354	0.065699
5382.304000	0.151077	0.184085	19.804037	0.065699
5385.252000	0.151077	0.184085	19.804037	0.065699
5388.251000	0.151077	0.183767	19.804354	0.065699
5391.256000	0.151077	0.184085	19.804354	0.065699
5394.256000	0.151077	0.184085	19.804354	0.065699
5397.253000	0.151077	0.183767	19.804354	0.065699
5400.257000	0.151077	0.184085	19.804354	0.065699
5403.252000	0.151077	0.184085	19.804354	0.065699
5406.261000	0.151077	0.183767	19.804354	0.065699
5409.318000	0.151077	0.183767	19.804354	0.065382
5412.273000	0.151077	0.184085	19.804354	0.065382
5415.252000	0.151077	0.184085	19.804354	0.065699
5418.264000	0.151077	0.183767	19.804672	0.065699
5421.252000	0.151077	0.184085	19.804354	0.065382
5424.256000	0.151077	0.184085	19.804354	0.065699
5427.264000	0.151077	0.183767	19.804354	0.065382
5430.365000	0.151077	0.183767	19.804354	0.065699
5433.245000	0.151077	0.183767	19.804354	0.065699
5436.302000	0.151077	0.184085	19.804354	0.065699
5439.253000	0.151077	0.183767	19.804354	0.065699
5442.247001	0.151077	0.184085	19.804354	0.065699
5445.340000	0.151077	0.184085	19.804354	0.065699
5448.284001	0.151077	0.184085	19.804354	0.065699
5451.260000	0.151077	0.183767	19.804354	0.065699
5454.271000	0.151077	0.183767	19.804354	0.065699
5457.281000	0.151077	0.184085	19.804037	0.065699
5460.248000	0.151077	0.184085	19.804354	0.065382
5463.268000	0.151077	0.184085	19.804037	0.065699
5466.268000	0.151077	0.184085	19.804037	0.065699
5469.264000	0.151077	0.184085	19.804037	0.065699
5472.259000	0.151077	0.183767	19.804037	0.065699
5475.259000	0.151077	0.184085	19.804037	0.065699
5478.255000	0.150759	0.183767	19.804037	0.065699
5481.263000	0.150759	0.184085	19.804354	0.065699
5484.346000	0.151077	0.184085	19.804354	0.065699
5487.255000	0.151077	0.184085	19.804354	0.065699
5490.247000	0.151077	0.184085	19.804037	0.065382
5493.325000	0.151077	0.184085	19.804037	0.065699
5496.267000	0.151077	0.183767	19.804354	0.065699
5499.255000	0.151077	0.183767	19.804354	0.065699
5502.247000	0.151077	0.183767	19.804037	0.065699
5505.324000	0.151077	0.184085	19.804037	0.065699
5508.294000	0.151077	0.184085	19.804354	0.065699
5511.261000	0.151077	0.184085	19.804354	0.065699
5514.319000	0.151077	0.183767	19.804354	0.065382
5517.258000	0.151077	0.184085	19.804354	0.065699
5520.257000	0.151077	0.183767	19.804354	0.065382
5523.311000	0.151077	0.183767	19.804037	0.065699
5526.265000	0.151077	0.183767	19.804037	0.065699
5529.250000	0.151077	0.184085	19.804037	0.065699
5532.348000	0.151077	0.183767	19.804354	0.065699
5535.274000	0.151077	0.184085	19.804354	0.065699
5538.251000	0.151077	0.183767	19.804037	0.065699
5541.259000	0.151077	0.184085	19.804354	0.065699
5544.279000	0.151077	0.183767	19.804037	0.065699
5547.270000	0.151077	0.184085	19.804037	0.065699
5550.272000	0.151077	0.184085	19.804037	0.065699
5553.252000	0.151077	0.184085	19.803719	0.065382
5556.259000	0.151077	0.184085	19.804037	0.065699
5559.269000	0.151077	0.184085	19.804037	0.065699
5562.316000	0.151077	0.183767	19.804037	0.065699
5565.261000	0.151077	0.183767	19.804354	0.065699
5568.270000	0.151077	0.184085	19.804037	0.065699
5571.265000	0.151077	0.183767	19.804354	0.065699
5574.325000	0.151077	0.183767	19.804037	0.065699
5577.332001	0.151077	0.183767	19.804037	0.065699
5580.337000	0.151077	0.184085	19.804037	0.065699
5583.366000	0.151077	0.184085	19.804037	0.065699
5586.262000	0.151077	0.184085	19.804037	0.065699
5589.375000	0.151077	0.184085	19.804037	0.065382
5592.279000	0.151077	0.183767	19.803719	0.065699
5595.331000	0.151077	0.183767	19.804037	0.065699
5598.319000	0.151077	0.184085	19.804037	0.065699
5601.266000	0.151077	0.184085	19.804037	0.065382
5604.262001	0.151077	0.183767	19.804037	0.065699
5607.262000	0.151077	0.184085	19.804037	0.065699
5610.263000	0.151077	0.184085	19.804037	0.065382
5613.278000	0.151077	0.183767	19.804037	0.065699
5616.266000	0.151077	0.183767	19.804037	0.065699
5619.266000	0.151077	0.183767	19.804037	0.065699
5622.263000	0.151077	0.184085	19.803719	0.065382
5625.256000	0.151077	0.183767	19.803719	0.065699
5628.362000	0.151077	0.184085	19.804037	0.065699
5631.327001	0.150759	0.184085	19.803719	0.065382
5634.265000	0.151077	0.183767	19.804037	0.065699
5637.266000	0.151077	0.184085	19.804037	0.065699
5640.340000	0.151077	0.183767	19.804037	0.065699
5643.323000	0.151077	0.183767	19.804037	0.065382
5646.290000	0.151077	0.183767	19.803719	0.065382
5649.265000	0.150759	0.184085	19.803719	0.065382
5652.337000	0.151077	0.184085	19.803719	0.065382
5655.287001	0.151077	0.184085	19.803719	0.065382
5658.320000	0.150759	0.183767	19.804037	0.065382
5661.260000	0.151077	0.184085	19.803719	0.065699
5664.271000	0.151077	0.183767	19.803719	0.065699
5667.284000	0.151077	0.183767	19.803719	0.065699
5670.281000	0.151077	0.183767	19.803719	0.065382
5673.272000	0.151077	0.184085	19.804037	0.065699
5676.326000	0.150759	0.183767	19.804037	0.065382
5679.268001	0.151077	0.183767	19.803719	0.065382
5682.273001	0.151077	0.183767	19.804037	0.065699
5685.269000	0.151077	0.183767	19.803719	0.065382
5688.273000	0.151077	0.183767	19.804037	0.065699
5691.343000	0.151077	0.183767	19.804037	0.065699
5694.336000	0.151077	0.184085	19.803719	0.065382
5697.262001	0.151077	0.184085	19.804037	0.065699
5700.269001	0.151077	0.183767	19.804037	0.065699
5703.282000	0.151077	0.184085	19.804037	0.065699
5706.281000	0.151077	0.183767	19.804037	0.065699
5709.285000	0.151077	0.183767	19.804037	0.065699
5712.273000	0.151077	0.184085	19.804037	0.065699
5715.364000	0.151077	0.184085	19.804037	0.065699
5718.346000	0.151077	0.183767	19.804037	0.065382
5721.275000	0.151077	0.184085	19.803719	0.065699
5724.270000	0.151077	0.183767	19.804037	0.065699
5727.270000	0.151077	0.183767	19.804037	0.065699
5730.271000	0.151077	0.183767	19.804037	0.065699
5733.271000	0.151077	0.184085	19.804037	0.065699
5736.283000	0.151077	0.184085	19.803719	0.065382
5739.316000	0.151077	0.183767	19.804037	0.065382
5742.276000	0.151077	0.184085	19.804037	0.065382
5745.317000	0.151077	0.183767	19.803719	0.065382
5748.276000	0.151077	0.183767	19.804037	0.065699
5751.276000	0.151077	0.183767	19.804037	0.065699
5754.275000	0.150759	0.183767	19.803719	0.065382
5757.271000	0.151077	0.183767	19.803719	0.065382
5760.271000	0.151077	0.184085	19.803719	0.065382
5763.288000	0.151077	0.184085	19.803719	0.065699
5766.276000	0.151077	0.184085	19.803719	0.065699
5769.276000	0.151077	0.183767	19.803719	0.065382
5772.277000	0.151077	0.183767	19.803719	0.065699
5775.273000	0.151077	0.184085	19.803719	0.065382
5778.266000	0.151077	0.183767	19.803719	0.065382
5781.273001	0.151077	0.183767	19.804037	0.065699
5784.278000	0.151077	0.184085	19.804037	0.065699
5787.282001	0.151077	0.184085	19.804037	0.065699
5790.276000	0.151077	0.183767	19.804037	0.065699
5793.276000	0.151077	0.183767	19.804037	0.065699
5796.360000	0.151077	0.183767	19.804037	0.065699
5799.286000	0.151077	0.183767	19.803719	0.065699
5802.277000	0.151077	0.183767	19.803719	0.065699
5805.277000	0.151077	0.183767	19.804037	0.065699
5808.281000	0.151077	0.183767	19.804037	0.065382
5811.277001	0.151077	0.183767	19.804037	0.065382
5814.286000	0.151077	0.183767	19.804037	0.065699
5817.277000	0.151077	0.183767	19.804037	0.065699
5820.270000	0.151077	0.183767	19.804037	0.065699
5823.269000	0.151077	0.184085	19.804037	0.065382
5826.278000	0.151077	0.183767	19.804037	0.065699
5829.278000	0.151077	0.183767	19.803719	0.065382
5832.281000	0.151077	0.183767	19.803719	0.065382
5835.278000	0.150759	0.183767	19.804037	0.065382
5838.282001	0.150759	0.183767	19.804037	0.065699
5841.282000	0.151077	0.183767	19.803719	0.065382
5844.294000	0.150759	0.183767	19.803719	0.065382
5847.278000	0.151077	0.183767	19.803719	0.065382
5850.279000	0.151077	0.183767	19.803719	0.065382
5853.287000	0.151077	0.183767	19.803719	0.065382
5856.278000	0.151077	0.183767	19.803719	0.065699
5859.279000	0.151077	0.183767	19.804037	0.065382
5862.291000	0.151077	0.183767	19.803719	0.065382
5865.308001	0.150759	0.183767	19.803719	0.065382
5868.281000	0.150759	0.184085	19.803719	0.065382
5871.284000	0.151077	0.183767	19.803719	0.065382
5874.280000	0.150759	0.184085	19.803719	0.065699
5877.348000	0.150759	0.183767	19.803719	0.065382
5880.360000	0.151077	0.183767	19.803719	0.065382
5883.281000	0.150759	0.183767	19.803719	0.065382
5886.281000	0.151077	0.183767	19.803719	0.065382
5889.368001	0.150759	0.183767	19.803719	0.065699
5892.294000	0.150759	0.183767	19.803719	0.065382
5895.281000	0.151077	0.184085	19.803719	0.065382
5898.369000	0.150759	0.183767	19.803719	0.065382
5901.281000	0.150759	0.183767	19.803719	0.065382
5904.281000	0.151077	0.183767	19.803719	0.065699
5907.274000	0.150759	0.183767	19.803719	0.065382
5910.282000	0.151077	0.183767	19.804037	0.065382
5913.282000	0.151077	0.183767	19.803085	0.065382
5916.371000	0.151077	0.183767	19.803719	0.065382
5919.288000	0.150759	0.183767	19.803719	0.065382
5922.283000	0.150759	0.183767	19.803085	0.065699
5925.353000	0.150759	0.183767	19.803719	0.065382
5928.285000	0.151077	0.183767	19.803719	0.065699
5931.285000	0.151077	0.183767	19.803719	0.065382
5934.277000	0.150759	0.183767	19.803719	0.065382
5937.359000	0.151077	0.183767	19.803719	0.065699
5940.343000	0.151077	0.183767	19.803719	0.065382
5943.289001	0.151077	0.183767	19.803719	0.065382
5946.291000	0.151077	0.183767	19.803085	0.065382
5949.290000	0.151077	0.183767	19.803719	0.065382
5952.399000	0.151077	0.184085	19.803719	0.065382
5955.302000	0.150759	0.183767	19.803085	0.065382
5958.286000	0.151077	0.183767	19.803719	0.065699
5961.278000	0.151077	0.183767	19.803719	0.065382
5964.352000	0.151077	0.184085	19.803085	0.065382
5967.287001	0.150759	0.183767	19.803085	0.065382
5970.286000	0.150759	0.183767	19.803085	0.065699
5973.382000	0.151077	0.183767	19.803719	0.065382
5976.299000	0.150759	0.183767	19.803719	0.065699
5979.286000	0.151077	0.183767	19.803719	0.065382
5982.290000	0.150759	0.183767	19.803719	0.065699
5985.291000	0.151077	0.184085	19.803719	0.065382
5988.291000	0.150759	0.183767	19.803719	0.065382
5991.358001	0.151077	0.183767	19.803719	0.065699
5994.287001	0.150759	0.183767	19.803085	0.065382
5997.316000	0.151077	0.183767	19.803719	0.065382
6000.280000	0.151077	0.183767	19.803085	0.065382
6003.292000	0.150759	0.184085	19.803719	0.065382
6006.305000	0.150759	0.183767	19.803719	0.065382
6009.351000	0.150759	0.183767	19.803719	0.065382
6012.290000	0.150759	0.183767	19.804037	0.065699
6015.293000	0.151077	0.183767	19.803719	0.065382
6018.339001	0.151077	0.183767	19.803719	0.065382
6021.298000	0.151077	0.184085	19.803719	0.065699
6024.289000	0.151077	0.183767	19.803719	0.065382
6027.289000	0.151077	0.183767	19.803719	0.065699
6030.380000	0.151077	0.183767	19.803719	0.065382
6033.290000	0.151077	0.183767	19.804037	0.065699
6036.294000	0.150759	0.183767	19.804037	0.065382
6039.292000	0.151077	0.183767	19.803719	0.065382
6042.304000	0.150759	0.183767	19.804037	0.065382
6045.284001	0.150759	0.183767	19.803719	0.065382
6048.400000	0.150759	0.183767	19.804037	0.065382
6051.285000	0.150759	0.183767	19.803719	0.065382
6054.301000	0.151077	0.183767	19.804037	0.065382
6057.292000	0.151077	0.184085	19.803719	0.065382
6060.284000	0.150759	0.183767	19.804037	0.065382
6063.330000	0.151077	0.183767	19.804037	0.065699
6066.297000	0.151077	0.183767	19.804037	0.065382
6069.375000	0.150759	0.183767	19.803719	0.065382
6072.284001	0.150759	0.183767	19.804037	0.065382
6075.296000	0.151077	0.183767	19.804037	0.065382
6078.298000	0.151077	0.183767	19.804037	0.065382
6081.369000	0.151077	0.183767	19.804037	0.065699
6084.294000	0.150759	0.183767	19.803719	0.065382
6087.286000	0.151077	0.183767	19.803719	0.065382
6090.354001	0.150759	0.183767	19.803719	0.065382
6093.288001	0.150759	0.183767	19.804037	0.065382
6096.299001	0.151077	0.183767	19.804037	0.065382
6099.295000	0.151077	0.183767	19.804037	0.065382
6102.304000	0.150759	0.183767	19.804037	0.065382
6105.287000	0.150759	0.183767	19.804037	0.065382
6108.380000	0.150759	0.183767	19.804037	0.065382
6111.385000	0.150759	0.183767	19.803719	0.065382
6114.361001	0.151077	0.183767	19.803719	0.065382
6117.287000	0.150759	0.183767	19.803719	0.065382
6120.295001	0.150759	0.183767	19.803719	0.065382
6123.296000	0.151077	0.183767	19.803719	0.065382
6126.288000	0.151077	0.183767	19.803085	0.065382
6129.389000	0.150759	0.183767	19.803085	0.065382
6132.297000	0.150759	0.183767	19.803085	0.065699
6135.376000	0.150759	0.183767	19.803085	0.065699
6138.297000	0.150759	0.183767	19.803719	0.065382
6141.298000	0.150759	0.183767	19.803719	0.065382
6144.372000	0.150759	0.183767	19.803719	0.065382
6147.376000	0.150759	0.183767	19.803719	0.065382
6150.307000	0.151077	0.183767	19.803719	0.065699
6153.314000	0.150759	0.183767	19.803085	0.065382
6156.302999	0.150759	0.183767	19.803719	0.065382
6159.307000	0.151077	0.183767	19.803085	0.065699
6162.303000	0.150759	0.183767	19.803085	0.065382
6165.375000	0.150759	0.183767	19.803085	0.065382
6168.311000	0.150759	0.183767	19.803085	0.065382
6171.304000	0.150759	0.183767	19.803085	0.065382
6174.315000	0.150759	0.183767	19.803719	0.065382
6177.308000	0.151077	0.183767	19.803719	0.065382
6180.305000	0.150759	0.183767	19.803719	0.065382
6183.384000	0.150759	0.183767	19.803719	0.065382
6186.379000	0.150759	0.183767	19.803719	0.065382
6189.375000	0.151077	0.183767	19.803085	0.065382
6192.322000	0.150759	0.183767	19.803719	0.065382
6195.313000	0.150759	0.183767	19.803085	0.065382
6198.350000	0.150759	0.183767	19.803719	0.065382
6201.301001	0.150759	0.183767	19.803719	0.065382
6204.381000	0.150759	0.183767	19.803085	0.065382
6207.305000	0.150759	0.183767	19.803719	0.065382
6210.305000	0.150759	0.183767	19.803719	0.065382
6213.313000	0.150759	0.183767	19.803085	0.065382
6216.358000	0.150759	0.183767	19.803719	0.065382
6219.293000	0.150759	0.183767	19.803719	0.065382
6222.302001	0.150759	0.183767	19.803719	0.065382
6225.390000	0.151077	0.183767	19.803719	0.065382
6228.311000	0.151077	0.184085	19.803085	0.065382
6231.377000	0.150759	0.183767	19.803719	0.065382
6234.307000	0.150759	0.183767	19.803719	0.065382
6237.307000	0.150759	0.183767	19.803719	0.065382
6240.302000	0.150759	0.183767	19.803719	0.065382
6243.314000	0.150759	0.183767	19.803719	0.065382
6246.323000	0.150759	0.183767	19.803085	0.065382
6249.295001	0.150759	0.183767	19.803719	0.065382
6252.311000	0.151077	0.183767	19.803719	0.065382
6255.366000	0.150759	0.183767	19.803719	0.065382
6258.305000	0.150759	0.183767	19.803719	0.065382
6261.309000	0.150759	0.183767	19.803719	0.065382
6264.305000	0.150759	0.183767	19.804037	0.065699
6267.309000	0.150759	0.183767	19.803719	0.065382
6270.306000	0.150759	0.183767	19.803719	0.065699
6273.390000	0.150759	0.183767	19.804037	0.065382
6276.306001	0.151077	0.183767	19.804037	0.065382
6279.298000	0.150759	0.183767	19.804037	0.065382
6282.319000	0.150759	0.183767	19.803719	0.065382
6285.316000	0.150759	0.183767	19.804037	0.065382
6288.300000	0.150759	0.183767	19.803719	0.065382
6291.307000	0.150759	0.183767	19.803719	0.065382
6294.319000	0.150759	0.183767	19.804037	0.065382
6297.327000	0.150759	0.183767	19.803719	0.065382
6300.307000	0.150759	0.183767	19.804037	0.065382
6303.316000	0.150759	0.183767	19.803719	0.065382
6306.308001	0.150759	0.184085	19.803719	0.065382
6309.308000	0.150759	0.183767	19.803719	0.065382
6312.308000	0.150759	0.183767	19.804037	0.065382
6315.308000	0.150759	0.183767	19.804037	0.065382
6318.300000	0.150759	0.183767	19.804037	0.065382
6321.308000	0.150759	0.183767	19.804037	0.065382
6324.308000	0.150759	0.183767	19.804037	0.065382
6327.300000	0.150759	0.183767	19.803719	0.065382
6330.317000	0.151077	0.183767	19.803719	0.065382
6333.319000	0.150759	0.183767	19.803719	0.065382
6336.370000	0.150759	0.183767	19.804037	0.065382
6339.300000	0.150759	0.183767	19.803719	0.065382
6342.301000	0.150759	0.183767	19.804037	0.065699
6345.312000	0.151077	0.183767	19.804037	0.065382
6348.317000	0.150759	0.183767	19.803719	0.065382
6351.302001	0.150759	0.183767	19.803719	0.065382
6354.301000	0.150759	0.183767	19.803719	0.065382
6357.309000	0.150759	0.183767	19.804037	0.065382
6360.330000	0.150759	0.183767	19.803719	0.065382
6363.309000	0.150759	0.183767	19.803719	0.065382
6366.313000	0.150124	0.183767	19.804037	0.065382
6369.313000	0.150759	0.183767	19.803719	0.065382
6372.309000	0.150759	0.183767	19.803719	0.065382
6375.310000	0.150759	0.183767	19.803719	0.065382
6378.368001	0.150759	0.183767	19.803719	0.065382
6381.313001	0.150759	0.183767	19.803719	0.065382
6384.309000	0.150759	0.183767	19.803719	0.065382
6387.302000	0.150759	0.183767	19.803719	0.065382
6390.310000	0.150759	0.183767	19.803719	0.065382
6393.319000	0.150759	0.183767	19.803719	0.065382
6396.323000	0.150759	0.183767	19.803719	0.065382
6399.319000	0.150759	0.183767	19.803719	0.065382
6402.372000	0.150759	0.183767	19.803719	0.065382
6405.310000	0.150759	0.183767	19.804037	0.065382
6408.328001	0.150759	0.183767	19.804037	0.065382
6411.381000	0.150759	0.183767	19.803719	0.065382
6414.302999	0.150759	0.183767	19.803719	0.065382
6417.315000	0.150759	0.183767	19.803719	0.065382
6420.315000	0.150759	0.183767	19.803719	0.065382
6423.332000	0.150759	0.183767	19.803719	0.065382
6426.320000	0.150759	0.183767	19.803719	0.065382
6429.303000	0.150759	0.183767	19.803719	0.065382
6432.312000	0.150759	0.183767	19.803719	0.065382
6435.313001	0.150759	0.183767	19.803085	0.065382
6438.379000	0.150759	0.183767	19.803719	0.065382
6441.314000	0.150759	0.183767	19.803719	0.065382
6444.306000	0.150759	0.183767	19.803085	0.065382
6447.306000	0.150759	0.183767	19.803719	0.065382
6450.306000	0.150759	0.183767	19.803719	0.065382
6453.318000	0.150759	0.183767	19.803719	0.065382
6456.306001	0.150759	0.183767	19.803719	0.065382
6459.405001	0.151077	0.183767	19.803719	0.065382
6462.306001	0.150759	0.183767	19.804037	0.065382
6465.323000	0.150759	0.183767	19.803719	0.065382
6468.418000	0.150759	0.183767	19.803719	0.065382
6471.376000	0.150759	0.183767	19.803719	0.065699
6474.319000	0.150759	0.183767	19.803719	0.065382
6477.315000	0.150759	0.183767	19.804037	0.065382
6480.352000	0.150759	0.183767	19.803719	0.065382
6483.331000	0.150759	0.183767	19.804037	0.065382
6486.319000	0.150759	0.183767	19.803719	0.065382
6489.315000	0.150759	0.183767	19.803719	0.065382
6492.392000	0.150759	0.183767	19.803719	0.065382
6495.327000	0.150759	0.183767	19.803719	0.065382
6498.324000	0.150759	0.183767	19.803719	0.065382
6501.324000	0.150759	0.183767	19.803719	0.065382
6504.319000	0.151077	0.183767	19.803719	0.065382
6507.320000	0.150759	0.183767	19.803719	0.065382
6510.320001	0.150759	0.183767	19.804037	0.065382
6513.313001	0.150759	0.183767	19.804037	0.065699
6516.320000	0.151077	0.183767	19.803719	0.065382
6519.320000	0.150759	0.183767	19.804037	0.065382
6522.328000	0.150759	0.183767	19.804037	0.065382
6525.320000	0.150759	0.183767	19.803719	0.065382
6528.324000	0.150759	0.183767	19.803719	0.065382
6531.386000	0.150759	0.183767	19.803719	0.065382
6534.329000	0.151077	0.183767	19.803719	0.065382
6537.324000	0.150759	0.183767	19.804037	0.065382
6540.371000	0.150759	0.183767	19.803719	0.065382
6543.330000	0.150759	0.183767	19.803719	0.065382
6546.330000	0.150759	0.183767	19.803085	0.065382
6549.314000	0.150759	0.183767	19.803719	0.065382
6552.321001	0.150759	0.183767	19.803719	0.065382
6555.333000	0.150759	0.183767	19.803719	0.065382
6558.325000	0.150759	0.183767	19.803719	0.065382
6561.314000	0.150759	0.183767	19.803719	0.065382
6564.395000	0.150759	0.183767	19.803719	0.065382
6567.321000	0.150759	0.183767	19.803719	0.065382
6570.352000	0.150759	0.183767	19.803719	0.065382
6573.331000	0.150759	0.183767	19.803719	0.065382
6576.326000	0.150759	0.183767	19.803719	0.065382
6579.315000	0.150759	0.183767	19.803719	0.065382
6582.373000	0.150759	0.183767	19.803719	0.065382
6585.415000	0.150759	0.183767	19.803719	0.065382
6588.322000	0.150759	0.183767	19.803719	0.065382
6591.314000	0.150759	0.183767	19.803719	0.065382
6594.344000	0.150759	0.183767	19.803719	0.065382
6597.339000	0.150759	0.183767	19.803719	0.065382
6600.339000	0.150759	0.183767	19.803719	0.065382
6603.327000	0.150759	0.183767	19.803719	0.065382
6606.384000	0.150759	0.183767	19.803085	0.065382
6609.331000	0.150759	0.183767	19.803719	0.065382
6612.384000	0.150759	0.183767	19.803719	0.065382
6615.384000	0.150759	0.183767	19.803719	0.065382
6618.331000	0.151077	0.183767	19.803719	0.065382
6621.331000	0.150759	0.183767	19.803719	0.065382
6624.339000	0.150759	0.183767	19.803719	0.065382
6627.326000	0.150759	0.183450	19.803719	0.065382
6630.322000	0.150759	0.183767	19.803719	0.065382
6633.315000	0.150759	0.183767	19.803085	0.065382
6636.354001	0.150759	0.183767	19.803719	0.065382
6639.327000	0.150759	0.183767	19.804037	0.065382
6642.324000	0.150759	0.183767	19.803719	0.065382
6645.328000	0.150759	0.183767	19.803719	0.065382
6648.324000	0.150759	0.183767	19.803085	0.065382
6651.316000	0.150759	0.183767	19.803719	0.065382
6654.396000	0.150759	0.183767	19.803719	0.065382
6657.379000	0.150759	0.183767	19.803719	0.065382
6660.325000	0.150759	0.183767	19.804037	0.065382
6663.325000	0.150759	0.183767	19.804037	0.065382
6666.325000	0.150759	0.183767	19.803719	0.065382
6669.325000	0.150759	0.183767	19.803719	0.065382
6672.331000	0.150759	0.183767	19.803719	0.065382
6675.422000	0.150759	0.183767	19.803719	0.065382
6678.397000	0.150759	0.183767	19.803085	0.065382
6681.330000	0.150759	0.183767	19.803085	0.065382
6684.326000	0.150759	0.183450	19.803719	0.065382
6687.410000	0.150759	0.183767	19.803719	0.065382
6690.352000	0.150759	0.183767	19.803085	0.065382
6693.348000	0.150759	0.183767	19.803085	0.065382
6696.322000	0.150759	0.183767	19.803085	0.065382
6699.349000	0.150759	0.183767	19.803719	0.065382
6702.321000	0.150759	0.183767	19.803719	0.065382
6705.353000	0.150759	0.183767	19.803719	0.065382
6708.366000	0.150759	0.183767	19.803719	0.065382
6711.338000	0.150759	0.183767	19.803719	0.065382
6714.423000	0.150759	0.183767	19.803719	0.065382
6717.410000	0.150759	0.183767	19.803719	0.065382
6720.339001	0.150759	0.183767	19.803719	0.065382
6723.350000	0.150759	0.183767	19.803719	0.065382
6726.339000	0.150759	0.183450	19.803719	0.065382
6729.339000	0.150759	0.183767	19.803719	0.065382
6732.393000	0.150759	0.183767	19.803719	0.065382
6735.343000	0.150759	0.183767	19.803719	0.065382
6738.324000	0.150759	0.183767	19.803719	0.065382
6741.340000	0.150759	0.183767	19.803719	0.065382
6744.393000	0.150759	0.183767	19.803719	0.065382
6747.337000	0.150759	0.183767	19.803085	0.065382
6750.341000	0.150759	0.183767	19.803085	0.065382
6753.324000	0.150759	0.183450	19.803085	0.065382
6756.324000	0.150759	0.183767	19.803085	0.065382
6759.338000	0.150759	0.183767	19.803085	0.065382
6762.326000	0.150759	0.183767	19.803085	0.065382
6765.399000	0.150759	0.183767	19.803719	0.065382
6768.333000	0.150759	0.183767	19.803719	0.065382
6771.335001	0.150759	0.183767	19.803085	0.065382
6774.334000	0.150759	0.183767	19.803719	0.065382
6777.328000	0.150759	0.183767	19.803719	0.065382
6780.335000	0.150759	0.183767	19.803085	0.065382
6783.335000	0.150759	0.183767	19.803719	0.065382
6786.339000	0.150759	0.183767	19.803085	0.065382
6789.339000	0.150759	0.183767	19.803085	0.065382
6792.418000	0.150759	0.183767	19.803085	0.065382
6795.390000	0.150759	0.183767	19.803719	0.065382
6798.335001	0.150759	0.183767	19.803719	0.065382
6801.423000	0.150759	0.183767	19.803719	0.065382
6804.341000	0.150759	0.183767	19.803085	0.065382
6807.342000	0.150759	0.183767	19.803085	0.065382
6810.342000	0.150759	0.183767	19.803085	0.065382
6813.329000	0.150759	0.183767	19.803085	0.065382
6816.362000	0.150759	0.183767	19.803085	0.065382
6819.337000	0.150759	0.183767	19.803085	0.065382
6822.346001	0.150759	0.183767	19.803085	0.065382
6825.337000	0.150759	0.183767	19.803085	0.065382
6828.337000	0.150759	0.183767	19.803085	0.065382
6831.350000	0.150759	0.183767	19.803085	0.065382
6834.337000	0.150759	0.183767	19.803085	0.065382
6837.337000	0.150759	0.183767	19.803085	0.065382
6840.331000	0.150759	0.183767	19.803085	0.065382
6843.406001	0.150759	0.183767	19.803719	0.065382
6846.338000	0.150759	0.183767	19.803719	0.065382
6849.347001	0.150759	0.183767	19.803085	0.065382
6852.425000	0.150759	0.183767	19.803719	0.065382
6855.330000	0.150759	0.183767	19.803719	0.065382
6858.339000	0.150759	0.183767	19.803719	0.065382
6861.339000	0.150759	0.183767	19.803085	0.065382
6864.344000	0.150759	0.183767	19.803085	0.065382
6867.340000	0.150759	0.183767	19.803085	0.065382
6870.332001	0.150759	0.183767	19.803719	0.065382
6873.348000	0.150759	0.183767	19.803085	0.065382
6876.361001	0.150759	0.183767	19.803085	0.065382
6879.340000	0.150759	0.183767	19.803085	0.065382
6882.344000	0.150759	0.183767	19.803085	0.065382
6885.349000	0.150759	0.183767	19.803085	0.065382
6888.334000	0.150759	0.183450	19.803719	0.065382
6891.351000	0.150759	0.183767	19.803085	0.065382
6894.347001	0.150759	0.183767	19.803085	0.065382
6897.343000	0.150759	0.183767	19.803085	0.065382
6900.345000	0.150759	0.183767	19.803719	0.065382
6903.354001	0.150759	0.183767	19.803719	0.065382
6906.345000	0.150759	0.183767	19.803085	0.065382
6909.370000	0.150759	0.183767	19.803085	0.065382
6912.345000	0.150759	0.183767	19.803719	0.065382
6915.361000	0.150759	0.183767	19.803719	0.065382
6918.349000	0.150759	0.183767	19.803085	0.065382
6921.345000	0.150759	0.183767	19.803085	0.065382
6924.349000	0.150759	0.183767	19.803719	0.065382
6927.345000	0.150759	0.183767	19.803719	0.065382
6930.345000	0.150759	0.183767	19.803719	0.065382
6933.345000	0.150759	0.183767	19.803085	0.065382
6936.345000	0.150759	0.183767	19.803719	0.065382
6939.350000	0.150759	0.183450	19.803719	0.065382
6942.349000	0.150759	0.183767	19.803719	0.065382
6945.349000	0.150759	0.183767	19.803085	0.065382
6948.345000	0.150759	0.183767	19.803085	0.065382
6951.345000	0.150759	0.183450	19.803719	0.065382
6954.353001	0.150759	0.183767	19.803719	0.065382
6957.349000	0.150759	0.183767	19.803719	0.065382
6960.437000	0.150759	0.183767	19.803719	0.065382
6963.419000	0.150759	0.183767	19.803719	0.065382
6966.407000	0.150759	0.183767	19.803719	0.065382
6969.345000	0.150759	0.183767	19.803719	0.065382
6972.345000	0.150759	0.183450	19.803085	0.065382
6975.403000	0.150759	0.183450	19.803719	0.065382
6978.345000	0.150759	0.183767	19.803085	0.065382
6981.354001	0.150759	0.183767	19.803085	0.065382
6984.350000	0.150759	0.183767	19.803719	0.065382
6987.399000	0.150759	0.183767	19.803719	0.065382
6990.353000	0.150759	0.183450	19.803085	0.065382
6993.345000	0.150759	0.183767	19.803085	0.065382
6996.366000	0.150759	0.183767	19.803719	0.065382
6999.416000	0.150759	0.183767	19.803719	0.065382
7002.423000	0.150759	0.183767	19.803085	0.065382
7005.345000	0.150759	0.183767	19.803719	0.065382
7008.398000	0.150759	0.183767	19.803719	0.065382
7011.357000	0.150759	0.183767	19.803719	0.065382
7014.354000	0.150759	0.183767	19.803719	0.065382
7017.337000	0.150759	0.183767	19.803719	0.065382
7020.345000	0.150759	0.183767	19.803719	0.065382
7023.407000	0.150759	0.183767	19.803719	0.065382
7026.345000	0.150759	0.183767	19.803085	0.065382
7029.362000	0.150759	0.183450	19.803719	0.065382
7032.355000	0.150759	0.183767	19.803085	0.065382
7035.347000	0.150759	0.183767	19.803719	0.065382
7038.351000	0.150759	0.183767	19.803719	0.065382
7041.402000	0.150759	0.183767	19.803719	0.065382
7044.347001	0.150759	0.183767	19.803719	0.065382
7047.352000	0.150759	0.183767	19.803719	0.065064
7050.347001	0.150759	0.183767	19.803719	0.065382
7053.359000	0.150759	0.183767	19.803719	0.065064
7056.398001	0.150759	0.183767	19.803719	0.065382
7059.351000	0.150759	0.183767	19.803085	0.065382
7062.376000	0.150759	0.183767	19.803085	0.065382
7065.351000	0.150759	0.183767	19.803085	0.065382
7068.389000	0.150759	0.183450	19.803719	0.065382
7071.340000	0.150759	0.183767	19.803719	0.065382
7074.381000	0.150759	0.183450	19.803085	0.065382
7077.347001	0.150759	0.183767	19.803719	0.065382
7080.352000	0.150759	0.183767	19.803085	0.065382
7083.348000	0.150759	0.183767	19.803719	0.065382
7086.373000	0.150759	0.183767	19.803719	0.065382
7089.348000	0.150759	0.183767	19.803719	0.065382
7092.360000	0.150759	0.183767	19.803719	0.065382
7095.341000	0.150759	0.183767	19.803719	0.065382
7098.349000	0.150759	0.183767	19.803719	0.065382
7101.348000	0.150759	0.183767	19.803085	0.065382
7104.348000	0.150759	0.183767	19.803719	0.065382
7107.348000	0.150759	0.183767	19.803085	0.065382
7110.373000	0.150759	0.183767	19.803719	0.065382
7113.348000	0.150759	0.183767	19.803719	0.065382
7116.460000	0.150759	0.183767	19.803085	0.065382
7119.348000	0.150759	0.183767	19.803085	0.065382
7122.348000	0.150759	0.183767	19.803719	0.065382
7125.348000	0.150759	0.183767	19.803719	0.065382
7128.348000	0.150759	0.183450	19.803719	0.065382
7131.350000	0.150759	0.183450	19.803719	0.065382
7134.349000	0.150759	0.183767	19.803085	0.065382
7137.353001	0.150759	0.183767	19.803719	0.065382
7140.341000	0.150759	0.183767	19.803719	0.065382
7143.358000	0.150759	0.183767	19.803085	0.065382
7146.349000	0.150759	0.183767	19.803085	0.065382
7149.399000	0.150759	0.183767	19.803085	0.065382
7152.378000	0.150759	0.183767	19.803719	0.065382
7155.349000	0.150759	0.183767	19.803719	0.065382
7158.353000	0.150759	0.183767	19.803085	0.065382
7161.365001	0.150759	0.183767	19.803085	0.065382
7164.358000	0.150759	0.183767	19.803085	0.065382
7167.350000	0.150759	0.183767	19.803719	0.065382
7170.351000	0.150759	0.183767	19.803719	0.065382
7173.463000	0.150759	0.183767	19.803085	0.065382
7176.360000	0.150759	0.183767	19.803085	0.065382
7179.417000	0.150759	0.183767	19.803085	0.065382
7182.345000	0.150759	0.183767	19.803719	0.065382
7185.352000	0.150759	0.183767	19.803719	0.065382
7188.357000	0.150759	0.183767	19.803085	0.065382
7191.387000	0.150759	0.183450	19.803085	0.065382
7194.346000	0.150759	0.183767	19.803085	0.065382
7197.348000	0.150759	0.183767	19.803719	0.065382
7200.356000	0.150759	0.183767	19.803085	0.065382
7203.376000	0.150759	0.183767	19.803085	0.065382
7206.355000	0.150759	0.183767	19.803085	0.065382
7209.367000	0.150759	0.183767	19.803085	0.065382
7212.355000	0.150759	0.183767	19.803085	0.065382
7215.363000	0.150759	0.183767	19.803719	0.065382
7218.355000	0.150759	0.183767	19.803085	0.065382
7221.355000	0.150759	0.183450	19.803085	0.065382
7224.364000	0.150759	0.183450	19.803719	0.065382
7227.356000	0.150759	0.183767	19.803719	0.065382
7230.386000	0.150759	0.183767	19.803719	0.065382
7233.361001	0.150759	0.183767	19.803719	0.065382
7236.361001	0.150759	0.183450	19.803719	0.065382
7239.427001	0.150759	0.183767	19.803719	0.065064
7242.357000	0.150759	0.183450	19.803719	0.065382
7245.356000	0.150759	0.183767	19.803719	0.065382
7248.358000	0.150759	0.183767	19.803085	0.065382
7251.436000	0.150759	0.183767	19.803719	0.065382
7254.361001	0.150759	0.183767	19.803719	0.065382
7257.361001	0.150759	0.183767	19.803719	0.065382
7260.366000	0.150759	0.183767	19.803085	0.065382
7263.359000	0.150759	0.183767	19.803085	0.065382
7266.470000	0.150759	0.183450	19.803085	0.065382
7269.375000	0.150759	0.183450	19.803719	0.065064
7272.359000	0.150124	0.183767	19.803719	0.065382
7275.378000	0.150759	0.183767	19.803719	0.065382
7278.350000	0.150759	0.183767	19.803085	0.065382
7281.363000	0.150759	0.183767	19.803719	0.065382
7284.472001	0.150759	0.183767	19.803719	0.065382
7287.389000	0.150759	0.183767	19.803719	0.065382
7290.393000	0.150759	0.183767	19.803719	0.065382
7293.360001	0.150759	0.183767	19.803719	0.065382
7296.361000	0.150759	0.183767	19.803719	0.065382
7299.361000	0.150759	0.183450	19.803719	0.065382
7302.404000	0.150759	0.183767	19.803085	0.065382
7305.361000	0.150124	0.183767	19.803085	0.065382
7308.361001	0.150759	0.183767	19.803719	0.065382
7311.367000	0.150759	0.183767	19.803085	0.065382
7314.371000	0.150759	0.183767	19.803085	0.065382
7317.362000	0.150759	0.183767	19.803085	0.065382
7320.355000	0.150759	0.183767	19.803085	0.065382
7323.355000	0.150759	0.183767	19.803085	0.065382
7326.354000	0.150759	0.183767	19.803085	0.065382
7329.363000	0.150759	0.183767	19.803085	0.065382
7332.362000	0.150759	0.183767	19.803085	0.065382
7335.433000	0.150759	0.183450	19.803719	0.065064
7338.368001	0.150759	0.183450	19.803085	0.065382
7341.384000	0.150759	0.183767	19.803085	0.065064
7344.363000	0.150759	0.183450	19.803085	0.065382
7347.471000	0.150759	0.183767	19.803085	0.065064
7350.355000	0.150759	0.183767	19.803085	0.065382
7353.363000	0.150759	0.183767	19.803719	0.065382
7356.425000	0.150759	0.183450	19.803719	0.065382
7359.364000	0.150759	0.183767	19.803085	0.065382
7362.368001	0.150759	0.183767	19.803719	0.065382
7365.389000	0.150759	0.183767	19.803719	0.065382
7368.364000	0.150759	0.183767	19.803085	0.065382
7371.365000	0.150759	0.183450	19.803719	0.065382
7374.478000	0.150759	0.183767	19.803719	0.065382
7377.358000	0.150759	0.183767	19.803719	0.065382
7380.371000	0.150759	0.183450	19.803719	0.065382
7383.383000	0.150759	0.183767	19.803719	0.065382
7386.370000	0.150759	0.183767	19.803719	0.065382
7389.392000	0.150759	0.183767	19.803719	0.065064
7392.372001	0.150759	0.183767	19.803719	0.065382
7395.367001	0.150759	0.183767	19.803085	0.065382
7398.368000	0.150759	0.183767	19.803719	0.065382
7401.372000	0.150759	0.183767	19.803719	0.065382
7404.371000	0.150759	0.183450	19.803085	0.065382
7407.368000	0.150124	0.183767	19.803085	0.065382
7410.376000	0.150759	0.183767	19.803719	0.065382
7413.377000	0.150759	0.183767	19.803719	0.065382
7416.443000	0.150759	0.183767	19.803085	0.065382
7419.380001	0.150759	0.183450	19.803085	0.065382
7422.464001	0.150759	0.183767	19.803085	0.065382
7425.426000	0.150759	0.183767	19.803719	0.065382
7428.360000	0.150759	0.183767	19.803719	0.065382
7431.373000	0.150759	0.183450	19.803085	0.065382
7434.455000	0.150759	0.183767	19.803085	0.065382
7437.368001	0.150759	0.183767	19.803719	0.065382
7440.377000	0.150124	0.183767	19.803085	0.065382
7443.384000	0.150759	0.183767	19.803085	0.065064
7446.377000	0.150759	0.183450	19.803719	0.065382
7449.392000	0.150124	0.183767	19.803085	0.065382
7452.373000	0.150759	0.183767	19.803085	0.065382
7455.377000	0.150759	0.183450	19.803085	0.065382
7458.472000	0.150759	0.183450	19.803085	0.065064
7461.369000	0.150759	0.183767	19.803085	0.065382
7464.374000	0.150759	0.183450	19.803085	0.065382
7467.373000	0.150759	0.183767	19.803085	0.065382
7470.369000	0.150759	0.183450	19.803085	0.065382
7473.369001	0.150759	0.183767	19.803085	0.065382
7476.473000	0.150759	0.183767	19.803085	0.065382
7479.378000	0.150759	0.183767	19.803085	0.065382
7482.373000	0.150759	0.183767	19.803085	0.065382
7485.374000	0.150759	0.183767	19.802767	0.065382
7488.369000	0.150759	0.183767	19.803085	0.065382
7491.436000	0.150124	0.183767	19.803085	0.065382
7494.394001	0.150759	0.183767	19.803719	0.065382
7497.443000	0.150124	0.183767	19.803719	0.065064
7500.370000	0.150759	0.183450	19.803085	0.065382
7503.370000	0.150759	0.183767	19.803085	0.065064
7506.371000	0.150759	0.183767	19.803719	0.065382
7509.375000	0.150759	0.183767	19.803085	0.065064
7512.379000	0.150759	0.183767	19.803085	0.065064
7515.404000	0.150759	0.183767	19.803085	0.065382
7518.441000	0.150759	0.183450	19.803085	0.065382
7521.374000	0.150759	0.183450	19.802767	0.065382
7524.370000	0.150759	0.183450	19.803085	0.065382
7527.380000	0.150759	0.183767	19.803085	0.065382
7530.434000	0.150124	0.183450	19.803085	0.065382
7533.410000	0.150759	0.183450	19.803085	0.065064
7536.377000	0.150759	0.183767	19.803085	0.065382
7539.398000	0.150124	0.183450	19.803085	0.065382
7542.451000	0.150759	0.183450	19.803085	0.065382
7545.440000	0.150759	0.183767	19.802767	0.065382
7548.406001	0.150759	0.183767	19.802767	0.065382
7551.379001	0.150759	0.183450	19.802767	0.065382
7554.437000	0.150124	0.183767	19.803085	0.065382
7557.374000	0.150759	0.183767	19.802767	0.065064
7560.450000	0.150759	0.183767	19.803085	0.065382
7563.396000	0.150759	0.183767	19.803085	0.065382
7566.435000	0.150124	0.183767	19.803719	0.065382
7569.378000	0.150759	0.183767	19.803085	0.065064
7572.378000	0.150124	0.183450	19.803085	0.065382
7575.378000	0.150759	0.183767	19.803719	0.065382
7578.378000	0.150759	0.183450	19.803719	0.065382
7581.379000	0.150759	0.183767	19.803085	0.065382
7584.379000	0.150759	0.183450	19.803085	0.065382
7587.415000	0.150759	0.183450	19.803085	0.065382
7590.379000	0.150759	0.183450	19.803719	0.065382
7593.396000	0.150124	0.183450	19.803085	0.065382
7596.392000	0.150759	0.183767	19.803719	0.065382
7599.493001	0.150759	0.183450	19.803719	0.065382
7602.385000	0.150759	0.183450	19.803085	0.065382
7605.389000	0.150759	0.183450	19.803719	0.065382
7608.483000	0.150759	0.183450	19.803719	0.065382
7611.386000	0.150759	0.183767	19.803719	0.065382
7614.402000	0.150759	0.183450	19.803719	0.065382
7617.381000	0.150124	0.183767	19.803719	0.065382
7620.402000	0.150759	0.183767	19.803085	0.065382
7623.381000	0.150759	0.183767	19.803719	0.065382
7626.373000	0.150759	0.183767	19.803085	0.065382
7629.385000	0.150759	0.183767	19.803719	0.065382
7632.381000	0.150759	0.183450	19.803085	0.065382
7635.387000	0.150759	0.183767	19.803085	0.065382
7638.382000	0.150759	0.183450	19.803085	0.065382
7641.435000	0.150759	0.183450	19.803719	0.065382
7644.384000	0.150759	0.183450	19.803719	0.065382
7647.376000	0.150759	0.183767	19.803719	0.065382
7650.450001	0.150759	0.183767	19.803719	0.065382
7653.376000	0.150759	0.183767	19.803719	0.065382
7656.442000	0.150759	0.183450	19.803719	0.065382
7659.388000	0.150759	0.183450	19.803719	0.065064
7662.438000	0.150759	0.183767	19.803085	0.065382
7665.395000	0.150124	0.183450	19.803719	0.065382
7668.375000	0.150124	0.183767	19.803085	0.065382
7671.387001	0.150759	0.183767	19.803085	0.065382
7674.375000	0.150759	0.183450	19.803085	0.065382
7677.387001	0.150759	0.183767	19.803719	0.065382
7680.425000	0.150759	0.183767	19.803085	0.065064
7683.387000	0.150759	0.183767	19.803719	0.065382
7686.457000	0.150759	0.183767	19.803719	0.065382
7689.383000	0.150759	0.183450	19.803085	0.065382
7692.383000	0.150124	0.183767	19.803085	0.065382
7695.392000	0.150759	0.183767	19.803719	0.065064
7698.384000	0.150759	0.183450	19.803085	0.065064
7701.442000	0.150759	0.183767	19.803085	0.065382
7704.376000	0.150759	0.183450	19.803719	0.065382
7707.388000	0.150759	0.183450	19.803085	0.065064
7710.442000	0.150759	0.183767	19.803085	0.065382
7713.376000	0.150759	0.183450	19.803719	0.065382
7716.464000	0.150124	0.183767	19.803719	0.065382
7719.456000	0.150759	0.183450	19.803085	0.065382
7722.444000	0.150124	0.183767	19.803085	0.065382
7725.387001	0.150124	0.183450	19.803085	0.065382
7728.404000	0.150759	0.183450	19.803085	0.065382
7731.453001	0.150759	0.183767	19.803085	0.065382
7734.438001	0.150759	0.183450	19.803719	0.065382
7737.392000	0.150124	0.183767	19.803719	0.065382
7740.381000	0.150759	0.183767	19.803085	0.065382
7743.388000	0.150759	0.183450	19.803085	0.065382
7746.388000	0.150759	0.183450	19.803085	0.065382
7749.388000	0.150124	0.183767	19.803085	0.065064
7752.409000	0.150124	0.183450	19.803719	0.065382
7755.381000	0.150759	0.183450	19.803085	0.065382
7758.388000	0.150124	0.183767	19.803085	0.065382
7761.405000	0.150759	0.183450	19.803085	0.065382
7764.479000	0.150124	0.183450	19.803085	0.065382
7767.500000	0.150759	0.183450	19.803085	0.065382
7770.388000	0.150759	0.183767	19.803085	0.065382
7773.392000	0.150124	0.183767	19.803085	0.065382
7776.392000	0.150124	0.183767	19.802767	0.065064
7779.382000	0.150759	0.183767	19.803085	0.065382
7782.382000	0.150124	0.183767	19.803085	0.065382
7785.398001	0.150124	0.183767	19.803085	0.065064
7788.393000	0.150759	0.183767	19.803085	0.065382
7791.382000	0.150759	0.183450	19.803085	0.065064
7794.401000	0.150124	0.183450	19.803085	0.065064
7797.394000	0.150124	0.183767	19.803085	0.065382
7800.406001	0.150759	0.183450	19.803085	0.065064
7803.397000	0.150759	0.183450	19.803085	0.065382
7806.445000	0.150124	0.183767	19.803085	0.065382
7809.477000	0.150759	0.183450	19.803085	0.065382
7812.389000	0.150759	0.183767	19.803085	0.065382
7815.410000	0.150759	0.183450	19.803719	0.065064
7818.497000	0.150124	0.183767	19.803085	0.065382
7821.389000	0.150124	0.183450	19.803719	0.065064
7824.394000	0.150759	0.183450	19.803085	0.065382
7827.398000	0.150124	0.183450	19.803085	0.065382
7830.398000	0.150124	0.183450	19.803085	0.065382
7833.398001	0.150759	0.183767	19.803719	0.065064
7836.394001	0.150759	0.183450	19.803719	0.065064
7839.402000	0.150124	0.183450	19.803719	0.065382
7842.390000	0.150124	0.183450	19.803085	0.065382
7845.390000	0.150124	0.183450	19.803085	0.065382
7848.394000	0.150759	0.183767	19.803719	0.065382
7851.432000	0.150759	0.183450	19.803719	0.065382
7854.445000	0.150124	0.183450	19.803719	0.065382
7857.390000	0.150759	0.183450	19.803719	0.065382
7860.395000	0.150124	0.183450	19.803085	0.065382
7863.395000	0.150124	0.183450	19.803085	0.065382
7866.390000	0.150759	0.183450	19.803085	0.065064
7869.394000	0.150759	0.183450	19.803085	0.065064
7872.383000	0.150759	0.183450	19.803085	0.065064
7875.395000	0.150124	0.183450	19.803085	0.065382
7878.394001	0.150759	0.183767	19.803085	0.065382
7881.410000	0.150759	0.183450	19.803719	0.065064
7884.477000	0.150759	0.183450	19.803085	0.065064
7887.451000	0.150759	0.183450	19.803085	0.065382
7890.440000	0.150759	0.183450	19.803085	0.065382
7893.390000	0.150124	0.183450	19.803085	0.065382
7896.383000	0.150759	0.183450	19.803085	0.065382
7899.395000	0.150124	0.183450	19.803085	0.065382
7902.391000	0.150759	0.183767	19.803085	0.065382
7905.490000	0.150759	0.183767	19.803085	0.065382
7908.383000	0.150759	0.183450	19.803085	0.065382
7911.396000	0.150759	0.183767	19.803085	0.065064
7914.468000	0.150124	0.183767	19.803719	0.065064
7917.386000	0.150759	0.183450	19.803085	0.065382
7920.399000	0.150759	0.183767	19.803085	0.065382
7923.398000	0.150124	0.183767	19.803719	0.065382
7926.403000	0.150759	0.183450	19.803085	0.065382
7929.399000	0.150759	0.183450	19.803085	0.065382
7932.398000	0.150759	0.183450	19.803085	0.065064
