LabVIEW Measurement	
Writer_Version	2
Reader_Version	2
Separator	Tab
Decimal_Separator	.
Multi_Headings	No
X_Columns	One
Time_Pref	Absolute
Operator	Mark
Date	2019/08/27
Time	13:50:43.4070000648498535157
***End_of_Header***	
	
Channels	4				
Samples	1	1	1	1	
Date	2019/08/27	2019/08/27	2019/08/27	2019/08/27	
Time	13:50:43.4070000648498535157	13:50:43.4320001602172851563	13:50:43.4229998588562011719	13:50:43.4270000457763671875	
X_Dimension	Time	Time	Time	Time	
X0	0.0000000000000000E+0	0.0000000000000000E+0	0.0000000000000000E+0	0.0000000000000000E+0	
Delta_X	1.000000	1.000000	1.000000	1.000000	
***End_of_Header***					
X_Value	FieldPoint\FP @ COM1\cFP-AI-110 @1\Channel 0 (Scaled)	FieldPoint\FP @ COM1\cFP-AI-110 @1\Channel 1 (Scaled)	FieldPoint\FP @ COM1\cFP-AI-110 @1\Channel 2 (Scaled)	FieldPoint\FP @ COM1\cFP-AI-110 @1\Channel 3 (Scaled)	Comment
0.000000	3.902598	0.190433	19.831966	0.072682
2.982000	3.957189	0.190433	19.831331	0.072682
5.875000	3.970520	0.190433	19.831966	0.072364
8.875000	3.921324	0.190433	19.831331	0.072682
11.904000	3.912437	0.190433	19.831966	0.072682
14.880000	3.878160	0.190433	19.831331	0.072682
17.871000	3.914977	0.190433	19.831331	0.072364
20.970999	4.014319	0.191067	19.831331	0.072682
23.950000	3.954015	0.190433	19.831331	0.072682
26.874000	3.919737	0.190433	19.831015	0.072682
29.874000	3.954015	0.190433	19.831015	0.072682
32.967000	3.949255	0.190433	19.831015	0.072364
35.971000	4.015271	0.190433	19.831015	0.072682
38.911000	4.039075	0.190433	19.831015	0.072682
41.874001	4.018445	0.190433	19.831331	0.072364
44.875000	4.007654	0.190433	19.831331	0.072364
47.959000	4.046375	0.190433	19.831015	0.072364
50.875000	4.081605	0.190433	19.831015	0.072364
53.890000	4.030823	0.190433	19.831015	0.072364
56.883000	4.077796	0.190433	19.831015	0.072364
59.945000	4.082557	0.190433	19.830698	0.072364
62.886000	4.159365	0.190433	19.830698	0.072682
65.885000	4.084144	0.190433	19.830698	0.072364
68.884000	4.097157	0.190433	19.830698	0.072364
71.884000	4.036853	0.190433	19.830698	0.072364
74.875999	4.145400	0.190433	19.830698	0.072364
77.888000	4.143496	0.190433	19.830698	0.072364
80.892000	4.141274	0.190433	19.830698	0.072364
83.876000	4.118104	0.190433	19.830698	0.072364
86.876000	4.101601	0.190433	19.830379	0.072364
89.897000	4.194278	0.190433	19.830698	0.072364
92.876000	4.144448	0.190115	19.830379	0.072364
95.888000	4.140956	0.190433	19.830379	0.072364
98.884000	4.080653	0.190115	19.830379	0.072364
101.928000	4.137783	0.190433	19.830379	0.072364
104.875000	4.147622	0.190433	19.830379	0.072364
107.880000	4.224112	0.190433	19.830379	0.072364
110.928000	4.175869	0.190115	19.830063	0.072364
113.875000	4.186660	0.190433	19.830063	0.072364
116.875000	4.116200	0.190433	19.830063	0.072364
119.875999	4.175234	0.190115	19.830063	0.072364
122.967000	4.185391	0.190433	19.830063	0.071730
125.976000	4.153335	0.190115	19.830063	0.072364
128.885000	4.120961	0.190115	19.829428	0.072364
131.913000	4.172378	0.190115	19.829428	0.071730
134.896000	4.151431	0.190115	19.829428	0.071730
137.876000	4.109853	0.190115	19.830063	0.071730
140.989000	4.146352	0.190115	19.829111	0.072364
143.877000	4.161269	0.190115	19.829428	0.072364
146.889000	4.135243	0.190115	19.829428	0.072364
149.924000	4.145400	0.190115	19.829428	0.072364
152.899000	4.147305	0.190115	19.829428	0.071730
155.891000	4.122231	0.190115	19.829428	0.072364
158.960000	4.146035	0.190115	19.829111	0.071730
161.961000	4.127626	0.190115	19.829111	0.072364
164.895000	4.137465	0.190115	19.829111	0.072364
167.902000	4.151113	0.190115	19.829111	0.072364
170.886000	4.146987	0.190115	19.829111	0.072364
173.898000	4.128896	0.190115	19.829111	0.071730
176.885999	4.110805	0.190115	19.829111	0.071730
179.889999	4.179043	0.190115	19.829111	0.072364
182.886000	4.146987	0.190115	19.829111	0.071730
185.891000	4.175869	0.190115	19.828793	0.071730
188.888000	4.186026	0.190115	19.828793	0.071730
191.887000	4.159048	0.190115	19.828793	0.072364
194.896000	4.123817	0.190115	19.828793	0.071730
197.911999	4.134926	0.190115	19.828793	0.071730
200.887000	4.083827	0.190115	19.828476	0.071730
203.880000	4.144448	0.190115	19.828793	0.071730
206.889000	4.145400	0.190115	19.828793	0.071730
209.880000	4.184121	0.190115	19.828476	0.071730
212.884000	4.148256	0.190115	19.828476	0.071730
215.884000	4.122231	0.190115	19.828476	0.071730
218.879000	4.146352	0.190115	19.828476	0.071730
221.906000	4.131752	0.190115	19.828476	0.071730
224.881000	4.133022	0.190115	19.828476	0.071730
227.985000	4.100648	0.190115	19.828476	0.071730
230.887000	4.151431	0.189798	19.828476	0.071730
233.895000	4.126992	0.190115	19.828476	0.071730
236.892000	4.117787	0.190115	19.828476	0.071730
239.887000	4.085731	0.190115	19.828157	0.071730
242.892000	4.123500	0.190115	19.828157	0.071730
245.907000	4.096840	0.190115	19.827841	0.071730
248.891000	4.120327	0.190115	19.827841	0.071730
251.893000	4.140322	0.190115	19.827841	0.071730
254.893000	4.085414	0.189798	19.827841	0.071730
257.889000	4.058753	0.190115	19.827841	0.071730
260.894000	4.053358	0.190115	19.827841	0.071730
263.886000	4.142226	0.190115	19.827841	0.071730
266.885000	4.135243	0.189798	19.827841	0.071730
269.928000	4.095888	0.190115	19.827841	0.071730
272.911000	4.069544	0.190115	19.827206	0.071730
275.894000	4.120961	0.190115	19.827206	0.071730
278.885000	4.094618	0.189798	19.827206	0.071730
281.911000	4.056531	0.189798	19.826889	0.071730
284.886000	4.031140	0.189798	19.826889	0.071730
287.969000	4.031458	0.189798	19.826889	0.071730
290.904000	4.080018	0.189798	19.827206	0.071730
293.898000	4.068910	0.189798	19.826889	0.071730
296.940000	4.084144	0.189798	19.826889	0.071412
299.886000	4.073036	0.189798	19.826889	0.071730
302.895000	4.097792	0.189798	19.826889	0.071730
305.887000	4.071449	0.189798	19.826889	0.071730
308.912000	4.031458	0.189798	19.826889	0.071412
311.895000	4.026380	0.189798	19.826889	0.071730
314.887000	4.065418	0.189798	19.826571	0.071730
317.936000	4.059071	0.189798	19.826889	0.071412
320.904000	4.095253	0.189798	19.826571	0.071730
323.899000	4.081288	0.189798	19.826571	0.071412
326.962000	4.019080	0.189798	19.826889	0.071412
329.896000	4.117787	0.189798	19.826889	0.071730
332.896000	4.053040	0.189798	19.826571	0.071412
335.896000	4.031140	0.189798	19.826254	0.071412
338.908000	4.043201	0.189798	19.826571	0.071730
341.900000	4.018762	0.189798	19.826254	0.071412
344.896000	4.078749	0.189798	19.826254	0.071412
347.905000	4.033045	0.189798	19.826254	0.071412
350.888000	4.043519	0.189798	19.825937	0.071412
353.888000	4.076527	0.189798	19.826254	0.071412
356.900000	4.017810	0.189798	19.825937	0.071412
359.896000	4.076527	0.189798	19.825937	0.071412
362.901000	4.047645	0.189798	19.825302	0.071412
365.938000	4.040662	0.189798	19.825937	0.071412
368.970000	4.080653	0.189798	19.825937	0.071412
371.896000	4.040979	0.189798	19.825937	0.071412
374.901000	4.055262	0.189798	19.825937	0.071412
377.887000	4.076844	0.189798	19.825937	0.071412
380.900000	4.064466	0.189798	19.825937	0.071412
383.896000	4.043836	0.189798	19.825937	0.071412
386.929000	3.993371	0.189798	19.825937	0.071412
389.900000	4.017810	0.189798	19.825937	0.071412
392.896000	4.064784	0.189798	19.825302	0.071412
395.888000	4.069544	0.189798	19.825302	0.071412
398.888000	4.020350	0.189798	19.825302	0.071412
401.888000	4.080653	0.189798	19.825302	0.071412
404.917000	4.038440	0.189798	19.825302	0.071412
407.900000	4.043836	0.189798	19.825302	0.071412
410.896000	4.039392	0.189798	19.825302	0.071412
413.901000	4.054945	0.189798	19.825302	0.071412
416.898000	4.075257	0.189798	19.825302	0.071412
419.979000	4.037806	0.189798	19.824984	0.071412
422.895000	4.037806	0.189798	19.824984	0.071412
425.899000	4.080018	0.189798	19.824984	0.071412
428.924000	3.996545	0.189798	19.824984	0.071412
431.890999	4.064466	0.189798	19.824984	0.071412
434.946000	4.065101	0.189798	19.824984	0.071412
437.908999	4.044471	0.189798	19.824984	0.071095
440.892000	4.054945	0.189798	19.824984	0.071412
443.975000	4.065736	0.189480	19.824667	0.071412
446.976000	4.067640	0.189798	19.824667	0.071095
449.925000	4.030823	0.189798	19.824667	0.071412
452.904000	4.042566	0.189798	19.824667	0.071412
455.909000	4.039392	0.189798	19.824667	0.071412
458.892000	4.056849	0.189480	19.824667	0.071412
461.893000	3.980358	0.189480	19.824667	0.071095
464.906000	4.040662	0.189480	19.824667	0.071095
467.979000	4.053040	0.189480	19.824667	0.071412
470.902000	4.065418	0.189798	19.824667	0.071412
473.911000	4.019080	0.189480	19.824350	0.071412
476.894000	4.042566	0.189798	19.824667	0.071412
479.902000	3.986706	0.189480	19.824350	0.071412
482.907001	4.087636	0.189480	19.824350	0.071412
485.906000	4.046375	0.189798	19.824350	0.071095
488.894000	4.079066	0.189798	19.824350	0.071412
491.954000	4.022571	0.189480	19.824350	0.071095
494.909000	4.061292	0.189480	19.824032	0.071412
497.908000	4.051453	0.189480	19.824350	0.071095
500.920000	4.058753	0.189798	19.824350	0.071095
503.909000	4.003528	0.189480	19.824032	0.071412
506.904000	4.053675	0.189480	19.824350	0.071412
509.904000	4.068910	0.189480	19.824032	0.071412
512.908999	3.992102	0.189798	19.823397	0.071095
515.915000	4.067323	0.189480	19.823397	0.071412
518.898000	4.067323	0.189480	19.824032	0.071095
521.986000	3.991467	0.189480	19.824032	0.071412
524.993000	4.067323	0.189480	19.823397	0.071095
528.010000	4.066688	0.189798	19.823397	0.071095
530.925000	4.054945	0.189480	19.824032	0.071095
533.918000	4.046692	0.189480	19.824032	0.071095
536.903000	4.067323	0.189480	19.824032	0.071412
539.997000	4.044471	0.189480	19.824032	0.071095
542.937000	4.060658	0.189480	19.823397	0.071095
545.957000	4.063514	0.189480	19.824032	0.071095
548.916000	4.069544	0.189480	19.823397	0.071095
552.007000	4.032410	0.189480	19.824032	0.071412
554.933000	4.039392	0.189480	19.824032	0.071095
557.989000	4.020667	0.189480	19.823397	0.071095
560.996000	4.030506	0.189480	19.823397	0.071095
563.921000	3.992419	0.189480	19.823397	0.071095
566.919000	4.042566	0.189480	19.823397	0.071095
569.912000	4.067005	0.189480	19.823397	0.071095
572.909000	4.042566	0.189480	19.823397	0.071095
575.997000	4.030823	0.189480	19.823080	0.071095
579.001000	3.993371	0.189480	19.823080	0.071095
581.911000	4.079066	0.189480	19.823397	0.071095
584.923000	4.077479	0.189480	19.823080	0.071095
587.911000	4.035901	0.189480	19.822763	0.071095
590.921000	4.031458	0.189480	19.823080	0.071095
593.921000	4.057166	0.189480	19.823080	0.071095
597.014999	4.067005	0.189480	19.823080	0.071095
599.914000	4.049232	0.189480	19.822763	0.071095
602.968000	4.033679	0.189480	19.823080	0.071095
605.978000	4.045740	0.189480	19.823080	0.071095
608.917000	4.039075	0.189480	19.822763	0.071095
611.958000	4.078114	0.189480	19.822763	0.071095
614.933000	4.017175	0.189480	19.822763	0.071095
618.029000	4.093031	0.189480	19.822763	0.071095
620.922000	4.090175	0.189480	19.822763	0.071095
623.960000	4.107631	0.189480	19.822763	0.071095
626.930000	4.067640	0.189480	19.823080	0.071095
629.920000	4.105092	0.189480	19.822763	0.071095
632.920000	4.065101	0.189480	19.822763	0.071095
635.924000	4.107631	0.189480	19.822763	0.071095
638.921000	4.053992	0.189480	19.822763	0.071095
641.958000	4.085414	0.189480	19.822763	0.071095
644.969000	4.046375	0.189480	19.822445	0.071095
647.922999	4.057484	0.189480	19.822445	0.071095
651.013000	4.080018	0.189480	19.822445	0.071095
653.968000	4.079383	0.189480	19.822763	0.071095
656.924000	4.064466	0.189480	19.822445	0.071095
659.937000	4.033045	0.189480	19.822445	0.071095
662.926001	4.022888	0.189480	19.822445	0.071095
665.943000	3.994641	0.189163	19.822128	0.071095
668.934999	4.076527	0.189480	19.822128	0.071095
672.005000	4.067640	0.189480	19.822445	0.071095
674.938000	4.030823	0.189480	19.822445	0.071095
677.927000	4.075892	0.189480	19.822128	0.071095
680.940000	4.079066	0.189480	19.822128	0.071095
684.031000	3.994641	0.189163	19.822128	0.071095
686.989000	4.102235	0.189163	19.822128	0.071095
689.954000	4.064466	0.189163	19.822128	0.071095
692.930000	4.023206	0.189480	19.822128	0.071095
695.943000	4.069544	0.189480	19.821810	0.071095
698.939000	4.074623	0.189163	19.822128	0.071095
701.930000	4.049866	0.189163	19.822128	0.071095
704.938000	4.011462	0.189480	19.821810	0.071095
707.930000	4.045105	0.189480	19.821810	0.071095
710.939000	4.053040	0.189480	19.821810	0.071095
713.955000	4.033679	0.189163	19.821810	0.071095
716.993000	4.037806	0.189480	19.822128	0.070777
719.943000	4.093666	0.189163	19.822128	0.071095
722.938000	4.009241	0.189480	19.822128	0.070777
725.938000	4.085414	0.189163	19.822128	0.071095
728.938000	4.072718	0.189480	19.822128	0.070777
731.930000	4.043836	0.189480	19.822128	0.071095
734.984000	4.011780	0.189480	19.821810	0.070777
737.930000	4.075575	0.189163	19.821810	0.070777
740.942000	4.074623	0.189163	19.821810	0.071095
743.944000	4.091762	0.189163	19.821177	0.070777
746.931000	4.067323	0.189163	19.821177	0.070777
749.955000	4.065418	0.189480	19.821177	0.071095
752.945000	4.068592	0.189480	19.821177	0.071095
755.949000	4.016858	0.189163	19.821177	0.070777
759.023000	4.092714	0.189163	19.821177	0.070777
761.931000	4.065418	0.189163	19.821177	0.070777
764.952001	4.041932	0.189163	19.821810	0.070777
767.944000	3.990832	0.189163	19.821177	0.070777
770.944000	3.984484	0.189163	19.821177	0.070777
773.940000	4.028284	0.189163	19.821177	0.070777
776.944000	4.028919	0.189163	19.821177	0.070777
779.932000	3.964172	0.189163	19.821177	0.070777
783.011000	4.042884	0.189163	19.821177	0.070777
785.990000	4.026380	0.189163	19.821177	0.070777
788.941000	3.981311	0.189163	19.821177	0.070777
791.950000	3.927355	0.189480	19.821177	0.070777
794.937000	3.979406	0.189480	19.821177	0.070777
797.941000	3.976867	0.189163	19.821177	0.070777
800.933000	3.940050	0.189163	19.821177	0.070777
803.958000	4.040345	0.189163	19.820858	0.070777
806.946000	4.003528	0.189480	19.820858	0.070777
809.934000	4.004162	0.189163	19.820858	0.070777
812.939000	3.966393	0.189163	19.821177	0.070777
815.948000	4.001624	0.189163	19.820858	0.071095
818.951000	3.964807	0.189163	19.820541	0.070777
821.948000	3.902598	0.189480	19.820858	0.070777
824.944000	3.940050	0.189163	19.820858	0.070777
827.944000	3.964489	0.189163	19.820858	0.070777
830.946000	3.948620	0.189163	19.820858	0.070777
833.951000	3.975598	0.189163	19.820858	0.070777
837.020000	3.938463	0.189163	19.820858	0.070777
839.947000	3.984802	0.189163	19.820858	0.070777
842.938000	3.968932	0.189163	19.820541	0.070777
845.947001	3.942272	0.189163	19.820858	0.070777
848.963000	3.960363	0.189163	19.820858	0.070777
851.955000	3.940050	0.189163	19.820858	0.070777
854.946000	3.938781	0.189163	19.820858	0.070777
857.954000	3.986706	0.189163	19.820858	0.070777
860.955000	3.964807	0.189163	19.820541	0.070777
863.950000	3.926403	0.189163	19.820541	0.070777
866.947000	4.001306	0.189163	19.820858	0.070777
869.947000	3.952428	0.189163	19.820858	0.070777
872.952000	3.926403	0.189163	19.820858	0.070777
875.948000	3.973058	0.189163	19.820541	0.070777
878.940000	3.938463	0.189163	19.820223	0.070777
881.948000	3.946715	0.189163	19.820541	0.070777
884.953000	3.964172	0.189163	19.820541	0.070777
887.945000	3.954015	0.189163	19.820541	0.070777
890.983000	3.974645	0.189163	19.820541	0.070777
893.953000	3.980993	0.189163	19.820541	0.070777
896.953000	3.950841	0.189163	19.820223	0.070777
899.948999	3.963219	0.189163	19.820541	0.070777
902.959000	3.950207	0.189163	19.820223	0.070777
905.951000	3.901964	0.189163	19.820541	0.070777
908.951000	3.948937	0.189163	19.820541	0.070777
911.964000	3.950841	0.189163	19.820223	0.070777
914.955000	3.928307	0.189163	19.820541	0.070777
917.942000	3.974328	0.189163	19.820223	0.070777
920.944000	3.953063	0.188528	19.820223	0.070460
923.960000	3.950207	0.189163	19.820223	0.070777
926.960999	3.983215	0.189163	19.819906	0.070777
929.952000	3.956237	0.189163	19.819906	0.070460
932.961000	3.957506	0.189163	19.819906	0.070777
935.961000	3.909264	0.189163	19.820223	0.070777
938.954000	3.946081	0.189163	19.819906	0.070777
941.971000	3.995593	0.189163	19.819906	0.070777
944.946000	3.932433	0.189163	19.820223	0.070777
947.963000	3.943224	0.189163	19.819906	0.070777
950.958000	3.955920	0.189163	19.819906	0.070460
953.963000	3.934655	0.189163	19.819906	0.070777
956.959000	3.951476	0.189163	19.819271	0.070777
960.013000	3.938781	0.189163	19.819906	0.070460
962.955999	3.949889	0.189163	19.819906	0.070460
965.946000	3.988293	0.189163	19.819906	0.070460
968.951000	3.940685	0.189163	19.819906	0.070777
971.964000	3.970837	0.189163	19.819271	0.070460
974.997000	4.002258	0.188528	19.819906	0.070460
977.960999	3.955285	0.189163	19.819906	0.070460
980.960999	4.000354	0.188528	19.819906	0.070460
983.960000	3.994641	0.189163	19.819271	0.070777
986.985000	3.967345	0.189163	19.819906	0.070777
989.968000	4.027014	0.189163	19.819271	0.070777
992.961000	3.984802	0.189163	19.819271	0.070777
995.960000	3.984167	0.188528	19.819271	0.070777
998.960000	3.967980	0.189163	19.819906	0.070777
1001.960000	4.027649	0.189163	19.818954	0.070460
1004.960000	4.055579	0.189163	19.819271	0.070777
1007.960999	4.043201	0.188528	19.819271	0.070460
1010.964000	4.028919	0.189163	19.819271	0.070777
1013.955999	3.992419	0.188528	19.819271	0.070777
1017.057000	4.028284	0.189163	19.819271	0.070460
1019.960000	4.016223	0.188528	19.819271	0.070460
1022.960000	4.014954	0.189163	19.819271	0.070460
1025.956000	3.947985	0.189163	19.819271	0.070460
1028.955999	4.000354	0.189163	19.819271	0.070460
1031.955999	4.002893	0.189163	19.818954	0.070777
1034.957000	4.040345	0.189163	19.819271	0.070460
1037.955999	3.941002	0.188528	19.818954	0.070460
1040.960000	4.002893	0.188528	19.818954	0.070460
1043.956000	4.028284	0.189163	19.818954	0.070777
1046.957000	3.975598	0.188528	19.819271	0.070460
1049.948000	4.002893	0.188528	19.819271	0.070460
1052.960000	4.039075	0.188528	19.818954	0.070460
1056.059999	4.003211	0.188528	19.818954	0.070460
1058.981999	4.028601	0.189163	19.818954	0.070777
1061.952000	4.033362	0.189163	19.818954	0.070460
1064.953000	4.041932	0.189163	19.818954	0.070460
1067.962000	3.995276	0.189163	19.818954	0.070460
1070.949000	4.020984	0.188528	19.818954	0.070460
1073.957000	4.031775	0.188528	19.818636	0.070460
1076.953000	4.042566	0.188528	19.818954	0.070460
1079.965000	4.034949	0.188528	19.818954	0.070460
1082.962000	4.025110	0.189163	19.818954	0.070460
1085.958000	4.022888	0.188528	19.818954	0.070460
1088.987000	4.064784	0.189163	19.818954	0.070460
1091.963000	4.013367	0.188528	19.818954	0.070460
1094.950000	4.053040	0.188528	19.818636	0.070460
1097.962000	4.003528	0.188528	19.818954	0.070460
1100.954000	3.990197	0.188528	19.818636	0.070460
1103.958000	4.026697	0.188528	19.818636	0.070460
1106.951000	4.040345	0.188528	19.818636	0.070460
1109.955000	4.015271	0.189163	19.818954	0.070460
1112.984000	3.953063	0.188528	19.818636	0.070460
1115.963000	3.993054	0.188528	19.818636	0.070460
1118.951000	3.991467	0.189163	19.818636	0.070460
1122.014000	4.021619	0.188528	19.818636	0.070460
1124.985000	4.028284	0.188528	19.818636	0.070460
1127.977000	4.010510	0.188528	19.818636	0.070460
1130.952001	4.011145	0.188528	19.818636	0.070460
1133.960000	4.021619	0.188528	19.818636	0.070460
1136.951000	4.032410	0.188528	19.818636	0.070460
1139.965000	4.003211	0.188528	19.818319	0.070777
1142.976000	4.051453	0.188528	19.818636	0.070460
1145.966000	4.052405	0.188528	19.818636	0.070460
1148.978000	3.977502	0.188528	19.818319	0.070460
1151.962000	4.039710	0.188528	19.818003	0.070460
1154.971000	4.041297	0.188528	19.818319	0.070460
1157.962000	4.029236	0.188528	19.818319	0.070460
1160.974999	3.979089	0.188528	19.818319	0.070460
1163.962000	4.062562	0.188528	19.818319	0.070460
1166.962000	4.038758	0.188528	19.818319	0.070460
1169.967000	4.026697	0.188528	19.818319	0.070460
1172.975000	4.046692	0.188528	19.818319	0.070460
1175.972000	4.013367	0.188528	19.818319	0.070460
1178.984000	4.040345	0.188528	19.818319	0.070460
1181.964000	4.004162	0.188528	19.818319	0.070460
1185.007999	4.039710	0.188528	19.818003	0.070460
1187.954000	4.029553	0.188528	19.818319	0.070460
1190.967999	4.013684	0.188528	19.818319	0.070460
1193.963000	4.077796	0.188528	19.818319	0.070460
1196.963000	4.066688	0.188528	19.818319	0.070460
1199.964000	4.061292	0.188528	19.818003	0.070460
1202.956000	4.066053	0.188528	19.818319	0.070460
1205.956000	4.068592	0.188528	19.818319	0.070460
1208.969000	4.074623	0.188528	19.818003	0.070460
1212.037000	4.053675	0.188528	19.818003	0.070460
1214.958000	4.066053	0.188528	19.818319	0.070460
1217.966000	3.996863	0.188528	19.818319	0.070460
1220.970000	4.031458	0.188528	19.818003	0.070460
1224.029000	4.066688	0.188528	19.818319	0.070460
1226.958000	3.998132	0.188528	19.818003	0.070460
1229.999000	4.075257	0.188528	19.818003	0.070460
1232.975000	4.060023	0.188528	19.818003	0.070460
1235.975000	4.066688	0.188528	19.818003	0.070460
1238.966000	3.980358	0.188528	19.817368	0.070460
1241.970000	4.091444	0.188528	19.817368	0.070460
1244.959000	4.065418	0.188528	19.818003	0.070460
1247.972000	4.111122	0.188528	19.817368	0.070460
1250.967000	4.065418	0.188528	19.817368	0.069825
1253.976000	4.053992	0.188528	19.817368	0.070460
1256.959000	4.020350	0.188528	19.817368	0.069825
1259.967000	4.030823	0.188528	19.817368	0.070460
1262.967999	4.052723	0.188528	19.817368	0.070460
1266.051000	4.088905	0.188528	19.818003	0.070460
1268.976000	4.069862	0.188528	19.817368	0.069825
1272.052000	4.000988	0.188528	19.817368	0.069825
1274.964000	4.065418	0.188528	19.817368	0.069825
1277.968000	4.077796	0.188528	19.817368	0.069825
1280.972000	4.067005	0.188528	19.817368	0.070460
1283.960000	4.028601	0.188528	19.817368	0.069825
1286.995000	4.091444	0.188528	19.817368	0.070460
1289.969000	4.106044	0.188528	19.817368	0.070460
1292.973000	4.004797	0.188528	19.817368	0.070460
1295.960999	4.091762	0.188528	19.817368	0.069825
1299.058000	4.091127	0.188211	19.817368	0.070460
1301.965000	4.091127	0.188528	19.817049	0.070460
1304.961000	4.086683	0.188211	19.817368	0.069825
1307.969000	4.047645	0.188528	19.817368	0.069825
1310.970000	4.097792	0.188211	19.817368	0.070460
1314.033000	4.089222	0.188528	19.817368	0.069825
1316.970000	4.068910	0.188528	19.817049	0.070460
1319.971000	4.017493	0.188528	19.817368	0.069825
1322.970000	4.095888	0.188528	19.817368	0.069825
1325.970000	4.066053	0.188528	19.817368	0.069825
1328.962000	4.079066	0.188528	19.817368	0.069825
1331.963000	4.015271	0.188528	19.817049	0.070460
1334.968000	4.091444	0.188211	19.817368	0.070460
1338.048000	4.127626	0.188211	19.817368	0.069825
1340.972000	4.093031	0.188528	19.817368	0.069825
1343.973000	4.092714	0.188528	19.817368	0.069825
1346.967999	4.067640	0.188528	19.817368	0.069825
1349.989000	4.104774	0.188211	19.817049	0.069825
1352.978000	4.054945	0.188211	19.817368	0.069825
1355.974000	4.065101	0.188211	19.817049	0.069825
1358.973000	4.089540	0.188211	19.817049	0.069825
1361.973000	4.105409	0.188211	19.817049	0.069825
1365.018001	4.129848	0.188528	19.817049	0.069825
1367.974000	4.045740	0.188211	19.817368	0.069825
1371.076000	4.064784	0.188528	19.817049	0.069825
1373.966000	4.075257	0.188528	19.817049	0.070460
1376.975000	4.080018	0.188211	19.817049	0.069825
1379.975000	4.078749	0.188528	19.817049	0.069825
1382.979000	3.991467	0.188528	19.817049	0.069825
1385.974000	4.077796	0.188211	19.817049	0.070460
1389.032000	4.066053	0.188211	19.817049	0.069825
1391.991000	4.066053	0.188211	19.817049	0.069825
1394.974999	3.992102	0.188211	19.816732	0.069825
1397.974999	4.115566	0.188211	19.816732	0.069825
1400.974999	4.112709	0.188528	19.817049	0.069825
1403.974000	4.103505	0.188528	19.817049	0.069825
1406.982000	4.072718	0.188211	19.816732	0.069825
1409.974000	4.096840	0.188528	19.816732	0.069825
1412.974000	4.105409	0.188211	19.817049	0.069825
1415.996000	4.105092	0.188528	19.817049	0.069825
1418.976000	4.116835	0.188211	19.817049	0.069825
1421.976000	4.096205	0.188528	19.816732	0.069825
1424.997000	4.106678	0.188211	19.816732	0.069825
1427.976000	4.105092	0.188211	19.816732	0.069825
1430.976000	4.105409	0.188211	19.816732	0.069825
1433.976000	4.057484	0.188211	19.816732	0.069825
1436.968000	4.136830	0.188211	19.816732	0.069825
1439.977000	4.125722	0.188211	19.816732	0.069825
1442.976000	4.118740	0.188211	19.816732	0.069825
1445.976000	4.068592	0.188211	19.816416	0.069825
1448.976000	4.079383	0.188211	19.816732	0.069825
1451.976000	4.095570	0.188211	19.816732	0.069825
1454.976000	4.107948	0.188211	19.816416	0.069825
1457.976000	4.067957	0.188211	19.816732	0.069825
1460.980000	4.090809	0.188211	19.816416	0.069825
1464.060000	4.101601	0.188211	19.816416	0.069825
1467.056000	4.029871	0.188211	19.816732	0.069825
1469.975999	4.077796	0.188211	19.816416	0.069825
1473.055999	4.065101	0.188211	19.816732	0.069825
1475.967999	4.015271	0.188211	19.816416	0.069825
1478.985000	4.091762	0.188211	19.816416	0.069825
1482.059000	4.065418	0.188211	19.816416	0.069825
1484.972000	4.053675	0.188211	19.816732	0.069825
1487.976000	4.101601	0.188211	19.816732	0.069825
1491.081000	4.049232	0.188211	19.816416	0.069825
1493.976000	4.087001	0.188211	19.816416	0.069825
1496.976000	4.110805	0.188211	19.816416	0.069825
1499.976000	4.143178	0.188211	19.816416	0.069825
1502.976000	4.120009	0.188211	19.816416	0.069825
1505.976000	4.096205	0.188211	19.816097	0.069825
1508.976000	4.079066	0.188211	19.816416	0.069825
1512.077000	4.105092	0.188211	19.816416	0.069825
1515.033000	4.143496	0.188211	19.816416	0.069508
1517.979000	4.092714	0.188211	19.816097	0.069825
1521.083000	4.029553	0.188211	19.816416	0.069508
1523.981999	4.117470	0.188211	19.816097	0.069508
1527.040999	4.116200	0.188211	19.816097	0.069825
1529.970000	4.105092	0.188211	19.816416	0.069825
1532.995000	4.106678	0.188211	19.816416	0.069825
1535.970000	4.079066	0.188211	19.816416	0.069825
1539.070000	4.102235	0.188211	19.815781	0.069825
1541.975000	4.077479	0.188211	19.816097	0.069825
1544.980000	4.113027	0.188211	19.816097	0.069825
1547.979000	4.111757	0.188211	19.816097	0.069825
1550.980000	4.124770	0.188211	19.815781	0.069825
1553.988000	4.082875	0.188211	19.816097	0.069508
1556.980000	4.138100	0.188211	19.816097	0.069825
1559.985000	4.118740	0.188211	19.816097	0.069508
1562.998000	4.130800	0.188211	19.816097	0.069825
1565.983000	4.116835	0.188211	19.816097	0.069825
1568.979000	4.127309	0.188211	19.816097	0.069825
1571.992001	4.105727	0.188211	19.816097	0.069508
1574.984000	4.079701	0.188211	19.815781	0.069825
1578.055000	4.067323	0.188211	19.816097	0.069825
1580.991000	4.140005	0.188211	19.816097	0.069825
1583.999000	4.105727	0.188211	19.815781	0.069825
1587.038000	4.093666	0.188211	19.815781	0.069825
1589.974000	4.067323	0.188211	19.815781	0.069508
1592.983000	4.091127	0.188211	19.815781	0.069508
1595.987000	4.105727	0.188211	19.815781	0.069825
1598.983000	4.072083	0.188211	19.815781	0.069825
1601.983000	4.104774	0.188211	19.815781	0.069825
1604.993000	4.090809	0.188211	19.816097	0.069825
1607.974999	4.118740	0.188211	19.815781	0.069508
1610.985000	4.092079	0.188211	19.815781	0.069825
1613.986000	4.130800	0.188211	19.815781	0.069825
1616.988000	4.119374	0.188211	19.815781	0.069508
1620.046000	4.141274	0.188211	19.815781	0.069825
1622.980000	4.090175	0.188211	19.815781	0.069508
1625.984000	4.065736	0.188211	19.815145	0.069825
1628.988000	4.006384	0.188211	19.815781	0.069825
1632.004000	4.063197	0.188211	19.815781	0.069508
1634.980000	4.067323	0.188211	19.815781	0.069508
1637.980000	4.031458	0.188211	19.815781	0.069508
1640.988000	4.064784	0.188211	19.815145	0.069508
1644.000000	4.065736	0.188211	19.815781	0.069508
1646.988000	4.104774	0.188211	19.815781	0.069508
1650.092000	4.077479	0.188211	19.815145	0.069825
1652.988000	4.053040	0.188211	19.815781	0.069825
1656.042000	4.105092	0.188211	19.815781	0.069508
1658.988000	4.061610	0.188211	19.815781	0.069508
1662.005000	4.075257	0.188211	19.815145	0.069508
1664.997000	4.071766	0.187893	19.815145	0.069508
1667.992000	4.060658	0.188211	19.815145	0.069508
1670.989000	4.102235	0.188211	19.815145	0.069508
1674.021000	4.104774	0.188211	19.815145	0.069508
1676.997000	4.042884	0.188211	19.815145	0.069508
1679.988000	4.101601	0.188211	19.815145	0.069508
1682.989000	4.059705	0.188211	19.815145	0.069508
1685.988000	4.127944	0.188211	19.815145	0.069508
1688.992000	4.060023	0.188211	19.815145	0.069508
1691.989000	4.104774	0.188211	19.815145	0.069508
1694.988000	4.106996	0.188211	19.815781	0.069508
1697.988000	4.116200	0.188211	19.815145	0.069508
1700.988000	4.067640	0.187893	19.815145	0.069508
1703.992000	4.167300	0.188211	19.815145	0.069508
1706.980000	4.129530	0.188211	19.815145	0.069508
1709.980000	4.117787	0.188211	19.815145	0.069508
1712.988000	4.066053	0.188211	19.815145	0.069508
1716.030000	4.142226	0.188211	19.815145	0.069508
1718.984000	4.141592	0.188211	19.815145	0.069508
1721.993000	4.078114	0.188211	19.815145	0.069508
1724.980000	4.128896	0.188211	19.815145	0.069508
1728.043000	4.097475	0.188211	19.814829	0.069508
1730.988000	4.075892	0.188211	19.815145	0.069508
1733.979000	4.110805	0.188211	19.815145	0.069508
1736.988000	4.106996	0.187893	19.815145	0.069508
1739.988000	4.119692	0.187893	19.815145	0.069508
1743.085000	4.011462	0.188211	19.815145	0.069508
1745.979000	4.093983	0.188211	19.815145	0.069508
1748.988000	4.130166	0.188211	19.814829	0.069508
1751.988000	4.040662	0.187893	19.814829	0.069508
1754.988000	4.089540	0.187893	19.814829	0.069508
1758.043000	4.066688	0.188211	19.814829	0.069508
1761.013000	4.028919	0.187893	19.815145	0.069508
1763.980000	4.140956	0.187893	19.814829	0.069508
1766.996000	4.117153	0.188211	19.814829	0.069508
1769.988000	4.142861	0.187893	19.814829	0.069508
1772.988000	4.104774	0.187893	19.815145	0.069508
1775.989000	4.057166	0.187893	19.814829	0.069508
1778.988000	4.115566	0.187893	19.814829	0.069508
1782.059000	4.121596	0.187893	19.814829	0.069508
1784.984000	4.116835	0.188211	19.814829	0.069508
1787.996000	4.073353	0.187893	19.814829	0.069508
1790.988000	4.135561	0.188211	19.814510	0.069508
1794.008000	4.130166	0.187893	19.814510	0.069191
1796.994000	4.120009	0.188211	19.814829	0.069508
1799.991000	4.103505	0.187893	19.814829	0.069508
1802.991000	4.127626	0.187893	19.814510	0.069508
1806.033000	4.143178	0.187893	19.814510	0.069508
1809.005000	4.117153	0.187893	19.814510	0.069508
1811.993999	4.030823	0.187893	19.814829	0.069508
1814.993000	4.139687	0.187893	19.814510	0.069508
1817.994000	4.118740	0.187893	19.814510	0.069508
1821.031000	4.080653	0.187893	19.814510	0.069508
1823.994000	4.079701	0.188211	19.814510	0.069508
1827.002000	4.136196	0.188211	19.814510	0.069508
1829.994000	4.137783	0.188211	19.814510	0.069508
1832.994000	4.085096	0.188211	19.814510	0.069508
1835.993999	4.103822	0.187893	19.814510	0.069508
1838.998000	4.109853	0.187893	19.814510	0.069508
1842.002000	4.107948	0.188211	19.814510	0.069508
1845.002000	4.111757	0.187893	19.814510	0.069508
1847.986000	4.135561	0.187893	19.814510	0.069508
1850.985000	4.099061	0.187893	19.814510	0.069508
1853.994000	4.067640	0.187893	19.814510	0.069508
1856.990000	4.119692	0.187893	19.814510	0.069508
1860.010000	4.022571	0.187893	19.814510	0.069508
1862.990000	4.096205	0.187893	19.814510	0.069508
1865.995000	4.068592	0.187893	19.814510	0.069508
1869.082000	4.035266	0.187893	19.814510	0.069508
1872.037000	4.093031	0.187893	19.814829	0.069508
1874.995000	4.080653	0.187893	19.814829	0.069508
1878.000000	4.033045	0.187893	19.814510	0.069508
1881.004000	4.107948	0.187893	19.814510	0.069508
1884.076000	4.077162	0.187893	19.814510	0.069508
1887.085000	4.027014	0.187893	19.814510	0.069508
1890.071000	4.090175	0.187893	19.814510	0.069508
1892.996000	4.065418	0.187893	19.814510	0.069508
1895.996000	4.051453	0.187893	19.814510	0.069508
1898.988000	4.103822	0.187893	19.814510	0.069508
1902.068000	4.114931	0.187893	19.814194	0.069508
1905.027000	4.077479	0.187893	19.814510	0.069508
1907.998000	4.028284	0.187893	19.814194	0.069508
1910.997000	4.095253	0.187893	19.814194	0.069508
1913.993000	4.038440	0.187893	19.814194	0.069508
1916.997000	4.106996	0.187893	19.814510	0.069191
1919.997000	4.104774	0.187893	19.814194	0.069508
1922.997000	4.066688	0.187893	19.814194	0.069508
1925.997000	4.080018	0.187893	19.814194	0.069508
1928.998000	4.149526	0.187893	19.814194	0.069508
1931.995000	4.126357	0.187893	19.814194	0.069508
1934.998000	4.141274	0.187893	19.814510	0.069191
1937.999000	4.105092	0.187893	19.814510	0.069508
1940.998000	4.116835	0.187893	19.814194	0.069508
1943.998000	4.140005	0.187893	19.814194	0.069508
1947.090000	4.129213	0.187893	19.814510	0.069191
1949.998000	4.118740	0.187893	19.814194	0.069191
1952.990000	4.106044	0.188211	19.814194	0.069191
1956.065000	4.093031	0.187893	19.814194	0.069508
1958.995000	4.079383	0.187893	19.814194	0.069191
1962.003000	4.108266	0.187893	19.814194	0.069508
1965.074999	4.083192	0.187893	19.814194	0.069191
1968.000000	4.128261	0.187893	19.814194	0.069191
1971.096000	4.078114	0.187893	19.813875	0.069508
1974.027000	4.155874	0.187893	19.813875	0.069191
1977.007000	3.973058	0.187893	19.814194	0.069508
1980.002000	4.083509	0.187893	19.813875	0.069508
1983.008000	4.073036	0.187893	19.813875	0.069508
1986.004000	4.129213	0.187893	19.813875	0.069191
1989.009000	4.067005	0.187893	19.814194	0.069191
1992.046000	4.078749	0.187893	19.813875	0.069191
1995.105000	4.087001	0.187893	19.813875	0.069508
1998.083000	4.129213	0.187893	19.814194	0.069508
2001.025000	4.119692	0.187893	19.814194	0.069508
2004.012000	4.105092	0.187893	19.814194	0.069191
2007.079000	4.115883	0.187893	19.813875	0.069191
2010.004000	4.148891	0.187893	19.813875	0.069191
2013.008000	4.115566	0.187893	19.813875	0.069191
2016.029999	4.102235	0.187893	19.813875	0.069508
2019.011000	4.047010	0.187576	19.813875	0.069191
2022.004000	4.097792	0.187893	19.813875	0.069191
2025.004000	4.079383	0.187893	19.813875	0.069191
2028.008000	4.059705	0.187893	19.813875	0.069191
2031.005000	4.090809	0.187893	19.813875	0.069191
2034.012000	4.102870	0.187893	19.813242	0.069508
2037.000000	4.077796	0.187893	19.813875	0.069191
2040.009000	4.067005	0.187893	19.813242	0.069191
2042.996000	4.128261	0.187893	19.813875	0.069191
2045.996000	4.105409	0.187893	19.813875	0.069191
2049.066000	4.057484	0.187893	19.814194	0.069191
2052.004000	4.035266	0.187893	19.813242	0.069191
2055.009000	4.099061	0.187893	19.813875	0.069508
2058.012000	4.094618	0.187893	19.813242	0.069191
2061.050000	4.091127	0.187893	19.813875	0.069191
2064.004000	4.142226	0.187893	19.813875	0.069191
2067.004000	4.065101	0.187893	19.813875	0.069191
2070.009000	4.141274	0.187893	19.813875	0.069191
2073.000000	4.142861	0.187893	19.813875	0.069508
2076.075000	4.104140	0.187893	19.813875	0.069191
2079.000000	4.053040	0.187893	19.813875	0.069191
2082.000000	4.115566	0.187893	19.813875	0.069191
2085.011000	4.140005	0.187893	19.813875	0.069191
2088.013000	4.141274	0.187893	19.813875	0.069191
2090.996000	4.117470	0.187893	19.813875	0.069191
2094.050000	4.100648	0.187893	19.813242	0.069508
2097.109000	4.149526	0.187893	19.813875	0.069191
2100.004000	4.103822	0.187893	19.813242	0.069191
2103.013000	4.083192	0.187893	19.813242	0.069191
2106.005000	4.060658	0.187893	19.813875	0.069191
2109.014000	4.104140	0.187893	19.813242	0.069191
2112.015000	4.083509	0.187893	19.813875	0.069191
2115.006000	4.069862	0.187893	19.813875	0.069191
2118.006000	4.107314	0.187893	19.813875	0.069191
2120.999000	4.063831	0.187893	19.813242	0.069508
2123.999000	4.028919	0.187893	19.813242	0.069191
2127.091000	4.103188	0.187893	19.813242	0.069191
2130.007000	4.102870	0.187576	19.813242	0.069191
2133.003000	4.078114	0.187893	19.813242	0.069191
2136.008000	4.103822	0.187893	19.813242	0.069191
2139.077000	4.051453	0.187893	19.813242	0.069191
2142.009000	4.052723	0.187576	19.812923	0.069191
2145.005000	4.039392	0.187893	19.812923	0.069191
2148.017000	4.091127	0.187893	19.812923	0.069191
2151.009000	4.069227	0.187576	19.812923	0.069191
2154.069000	4.088905	0.187893	19.812923	0.069191
2157.063000	4.063831	0.187576	19.812923	0.069191
2160.005000	4.103822	0.187893	19.812923	0.069508
2163.097000	4.082875	0.187576	19.813242	0.069191
2166.017000	4.044788	0.187576	19.812923	0.069191
2169.014000	4.083192	0.187576	19.812923	0.069191
2172.002000	4.022254	0.187576	19.812923	0.069191
2175.011000	4.051453	0.187576	19.812923	0.069191
2178.014000	4.105727	0.187576	19.812923	0.069191
2181.002000	4.165713	0.187893	19.812923	0.069191
2184.014000	4.164126	0.187893	19.812923	0.069191
2187.010000	4.141592	0.187893	19.812923	0.069191
2190.014000	4.104774	0.187893	19.812923	0.069191
2193.014000	4.082875	0.187576	19.812923	0.069191
2196.002000	4.141909	0.187893	19.813242	0.069191
2199.010000	4.073036	0.187576	19.812923	0.069191
2202.018000	4.103822	0.187576	19.812923	0.069191
2205.018000	4.086049	0.187576	19.812607	0.069191
2208.018000	4.160952	0.187893	19.812923	0.069191
2211.011000	4.141274	0.187576	19.812923	0.069191
2214.011000	4.116200	0.187576	19.812607	0.069191
2217.010000	4.121596	0.187893	19.812607	0.069191
2220.014000	4.067640	0.187576	19.812607	0.069191
2223.010000	4.029236	0.187576	19.812607	0.069191
2226.002000	4.037171	0.187576	19.812923	0.069191
2229.010000	4.112074	0.187576	19.812923	0.069191
2232.014000	4.087636	0.187576	19.812923	0.069191
2235.007000	4.044471	0.187576	19.812607	0.069191
2238.054000	4.075257	0.187893	19.812923	0.069191
2241.008000	4.078114	0.187576	19.812923	0.069191
2244.012000	4.080018	0.187893	19.812923	0.069191
2247.017000	4.107314	0.187576	19.812607	0.069191
2250.003999	4.087636	0.187576	19.812923	0.069191
2253.017000	4.104140	0.187576	19.812923	0.069191
2256.020000	4.103505	0.187576	19.812923	0.069191
2259.017000	4.104774	0.187576	19.812607	0.069191
2262.026000	4.026697	0.187576	19.812607	0.069191
2265.013000	4.089857	0.187893	19.812607	0.069191
2268.021000	4.064784	0.187576	19.812607	0.069191
2271.021000	3.988293	0.187576	19.812607	0.069191
2274.021000	4.061610	0.187576	19.812607	0.069191
2277.014999	4.051453	0.187576	19.812607	0.069191
2280.006000	4.073988	0.187576	19.812607	0.069191
2283.014999	4.000988	0.187576	19.812607	0.069191
2286.014000	4.064784	0.187576	19.812607	0.069191
2289.006000	4.067005	0.187576	19.812607	0.069191
2292.014000	4.036536	0.187576	19.812607	0.069191
2295.068000	4.055579	0.187576	19.812607	0.069191
2298.085000	4.067005	0.187576	19.812607	0.069191
2301.022000	4.100648	0.187576	19.812607	0.069191
2304.020000	4.079701	0.187576	19.812288	0.068873
2307.014999	4.027649	0.187576	19.812607	0.069191
2310.014999	4.062562	0.187576	19.812607	0.069191
2313.028000	4.063514	0.187576	19.812288	0.069191
2316.012000	4.090175	0.187576	19.812607	0.069191
2319.024000	4.063514	0.187576	19.812607	0.069191
2322.024000	4.051136	0.187576	19.812607	0.069191
2325.017000	4.051136	0.187576	19.812607	0.069191
2328.015999	4.101918	0.187576	19.812607	0.069191
2331.016000	4.076527	0.187576	19.812607	0.069191
2334.021000	4.079701	0.187576	19.812607	0.069191
2337.020000	4.090175	0.187576	19.812607	0.069191
2340.016000	4.047327	0.187576	19.812607	0.068873
2343.016000	4.056531	0.187576	19.812288	0.069191
2346.024000	4.048914	0.187576	19.812288	0.069191
2349.017000	4.090175	0.187576	19.812607	0.069191
2352.017000	4.050818	0.187576	19.812607	0.069191
2355.018000	4.042884	0.187576	19.812607	0.069191
2358.013000	4.025745	0.187576	19.812607	0.069191
2361.017000	4.091127	0.187576	19.812288	0.068873
2364.022000	4.029871	0.187576	19.812288	0.069191
2367.022000	4.051771	0.187576	19.812288	0.069191
2370.021000	4.085414	0.187576	19.812288	0.069191
2373.009000	4.103505	0.187576	19.812288	0.069191
2376.014000	4.053675	0.187576	19.812288	0.069191
2379.026000	4.027332	0.187576	19.812288	0.069191
2382.018000	4.087001	0.187576	19.812288	0.068873
2385.019000	4.068910	0.187576	19.812288	0.068873
2388.026000	4.060023	0.187576	19.812288	0.069191
2391.019000	4.103188	0.187576	19.811972	0.069191
2394.011000	4.063197	0.187576	19.812288	0.068873
2397.117000	4.063831	0.187576	19.812288	0.069191
2400.020000	4.051453	0.187576	19.812288	0.068873
2403.020000	4.086049	0.187576	19.812288	0.068873
2406.024000	4.085731	0.187576	19.812288	0.068873
2409.021000	4.060658	0.187576	19.812288	0.068873
2412.023000	4.104140	0.187576	19.811972	0.068873
2415.022000	4.066688	0.187576	19.812288	0.068873
2418.022000	4.009241	0.187576	19.811972	0.068873
2421.038000	4.100966	0.187576	19.812288	0.068873
2424.059000	4.104140	0.187576	19.812288	0.069191
2427.022000	4.040662	0.187576	19.811337	0.069191
2430.022000	4.010510	0.187576	19.811972	0.069191
2433.022000	4.082875	0.187576	19.812288	0.068873
2436.035000	4.102870	0.187576	19.812288	0.069191
2439.030000	4.043836	0.187576	19.811972	0.068873
2442.027000	4.102235	0.187576	19.811972	0.068873
2445.013000	4.059071	0.187576	19.811972	0.068873
2448.014000	4.076527	0.187576	19.811972	0.069191
2451.014000	4.039392	0.187576	19.811972	0.068873
2454.107000	4.089540	0.187576	19.811337	0.068873
2457.014999	4.076527	0.187576	19.811972	0.068873
2460.020000	4.002258	0.187576	19.811972	0.069191
2463.023000	4.103505	0.187576	19.811972	0.068873
2466.052000	4.087001	0.187576	19.812288	0.068873
2469.024000	4.058753	0.187576	19.811972	0.069191
2472.024000	4.068592	0.187576	19.811972	0.068873
2475.082000	4.102235	0.187576	19.811972	0.068873
2478.033000	4.071449	0.187576	19.811972	0.068873
2481.026000	4.080018	0.187576	19.811972	0.069191
2484.118000	4.049232	0.187576	19.811972	0.068873
2487.026000	4.007337	0.187576	19.811337	0.069191
2490.114000	4.063831	0.187576	19.811337	0.068873
2493.033999	3.974328	0.187576	19.811972	0.068873
2496.039000	4.038440	0.187576	19.811972	0.068873
2499.031000	4.063197	0.187576	19.811972	0.068873
2502.042000	4.103822	0.187576	19.811972	0.068873
2505.031000	4.064784	0.187576	19.811972	0.068873
2508.067000	4.014637	0.187576	19.811972	0.069191
2511.022000	4.103188	0.187576	19.811972	0.068873
2514.031000	4.063514	0.187259	19.811972	0.068873
2517.033999	4.090809	0.187259	19.811337	0.068873
2520.022000	4.090175	0.187576	19.811972	0.068873
2523.026000	4.075892	0.187576	19.811337	0.068873
2526.034000	4.063831	0.187576	19.811972	0.068873
2529.054000	4.064466	0.187576	19.811337	0.068873
2532.030000	4.083192	0.187576	19.811337	0.068873
2535.033999	4.103822	0.187576	19.811337	0.068873
2538.026000	4.086049	0.187259	19.811337	0.068873
2541.026999	4.032410	0.187576	19.811337	0.068873
2544.064000	4.027332	0.187576	19.811337	0.069191
2547.019000	4.026697	0.187259	19.811972	0.068873
2550.023000	4.038758	0.187259	19.811337	0.068873
2553.035000	4.103505	0.187576	19.811337	0.068873
2556.116000	4.102870	0.187576	19.811337	0.068873
2559.044001	4.103822	0.187576	19.811337	0.068873
2562.059999	4.088905	0.187259	19.811020	0.068873
2565.026999	4.088905	0.187259	19.811337	0.068873
2568.019000	4.115883	0.187576	19.811337	0.068873
2571.086000	4.065101	0.187259	19.811337	0.068873
2574.035000	4.099061	0.187259	19.811337	0.068873
2577.024000	4.067640	0.187259	19.811337	0.068873
2580.028000	4.046692	0.187576	19.811337	0.068873
2583.033000	4.050501	0.187576	19.811337	0.068873
2586.029000	4.111440	0.187576	19.811337	0.068873
2589.033000	4.043836	0.187259	19.811020	0.068873
2592.040999	4.079383	0.187576	19.811020	0.068873
2595.040999	4.092079	0.187576	19.811020	0.068873
2598.101000	4.051453	0.187259	19.811020	0.068873
2601.029000	4.028601	0.187259	19.811020	0.068873
2604.025000	4.087953	0.187576	19.811020	0.068873
2607.042000	4.115248	0.187259	19.811020	0.068873
2610.022000	4.041614	0.187576	19.811020	0.068873
2613.026000	4.101918	0.187576	19.811020	0.068873
2616.021000	4.102235	0.187259	19.810701	0.068873
2619.030000	4.027332	0.187259	19.811020	0.068873
2622.030000	4.038758	0.187259	19.811020	0.068873
2625.071000	4.043519	0.187259	19.810701	0.068873
2628.030000	4.025427	0.187259	19.810701	0.068873
2631.070000	4.043201	0.187576	19.811020	0.068873
2634.036000	4.056531	0.187259	19.810701	0.068873
2637.041000	4.071131	0.187259	19.810701	0.068873
2640.025000	4.081288	0.187259	19.810701	0.068873
2643.104000	4.053040	0.187576	19.810701	0.068873
2646.033000	4.099061	0.187576	19.811020	0.068873
2649.033000	4.088588	0.187259	19.810701	0.068873
2652.038000	4.098744	0.187576	19.810701	0.068873
2655.033000	4.063197	0.187576	19.810701	0.068873
2658.033000	4.039710	0.187259	19.810701	0.068873
2661.037001	4.063197	0.187576	19.810701	0.068873
2664.038000	4.091127	0.187259	19.810701	0.068873
2667.033000	4.091127	0.187259	19.810701	0.068873
2670.033000	4.043519	0.187259	19.810701	0.068873
2673.038000	4.075892	0.187576	19.811020	0.068873
2676.029000	4.069862	0.187259	19.811020	0.068873
2679.046000	4.052405	0.187259	19.810701	0.068873
2682.058000	4.052723	0.187576	19.810701	0.068873
2685.029000	4.061927	0.187259	19.810701	0.068873
2688.041000	4.055579	0.187259	19.810701	0.068873
2691.033000	4.007019	0.187259	19.811020	0.068873
2694.033000	4.076527	0.187259	19.810701	0.068873
2697.033000	4.075257	0.187259	19.810701	0.068873
2700.040999	4.114931	0.187259	19.810701	0.068873
2703.033000	4.051453	0.187259	19.810701	0.068873
2706.099000	4.105092	0.187259	19.810701	0.068873
2709.121000	4.042566	0.187259	19.810385	0.068873
2712.033000	4.097792	0.187259	19.810385	0.068873
2715.033000	4.086049	0.187259	19.810701	0.068873
2718.033000	4.057801	0.187259	19.810701	0.068873
2721.050000	4.085731	0.187259	19.810701	0.068873
2724.054000	4.103505	0.187259	19.810385	0.068873
2727.033999	4.049866	0.187259	19.810701	0.068873
2730.034000	4.075575	0.187259	19.810701	0.068873
2733.034000	4.089857	0.187259	19.810701	0.068556
2736.093000	4.038758	0.187259	19.810385	0.068873
2739.034000	3.987341	0.187259	19.810701	0.068873
2742.038000	4.088588	0.187259	19.810385	0.068873
2745.051000	4.063831	0.187259	19.810701	0.068873
2748.033999	4.063514	0.187259	19.810701	0.068873
2751.038000	4.025745	0.187259	19.810701	0.068873
2754.068000	4.087636	0.187259	19.810701	0.068873
2757.034000	4.095888	0.187259	19.810701	0.068873
2760.034000	4.081288	0.187259	19.810701	0.068873
2763.026000	4.048914	0.187259	19.810701	0.068873
2766.104000	4.093983	0.187259	19.810701	0.068556
2769.071000	4.042884	0.187259	19.810701	0.068873
2772.033999	4.033679	0.187259	19.810701	0.068873
2775.042000	4.073988	0.187259	19.810701	0.068873
2778.096000	4.125404	0.187259	19.810701	0.068873
2781.088000	4.066688	0.187259	19.810701	0.068556
2784.101000	4.113979	0.187259	19.810701	0.068873
2787.042000	4.103822	0.187259	19.810701	0.068873
2790.105000	4.103822	0.187259	19.810701	0.068873
2793.042000	4.101601	0.187259	19.810701	0.068873
2796.102000	4.061927	0.187259	19.810701	0.068873
2799.056000	4.065101	0.187259	19.810701	0.068873
2802.139000	4.026697	0.187259	19.810701	0.068873
2805.032000	4.111440	0.187259	19.810701	0.068873
2808.036000	4.103505	0.187259	19.810701	0.068873
2811.036000	4.078114	0.187259	19.810701	0.068873
2814.036000	4.029553	0.187259	19.810701	0.068873
2817.111000	4.054627	0.187259	19.810385	0.068556
2820.044000	4.063197	0.187259	19.810385	0.068556
2823.028000	4.051136	0.187259	19.810385	0.068873
2826.033000	4.051453	0.187259	19.810701	0.068556
2829.029000	4.079066	0.187259	19.810701	0.068873
2832.046000	4.061292	0.187259	19.810385	0.068556
2835.033000	4.101283	0.187259	19.810701	0.068873
2838.041000	4.039710	0.187259	19.810385	0.068556
2841.037001	4.100014	0.187576	19.810385	0.068873
2844.037001	4.063831	0.187259	19.810385	0.068556
2847.129000	4.075575	0.187259	19.810701	0.068556
2850.092000	4.016223	0.187259	19.810385	0.068873
2853.038000	4.125404	0.187259	19.810701	0.068873
2856.045000	4.114931	0.187259	19.810385	0.068556
2859.054000	4.030823	0.187259	19.810385	0.068873
2862.101000	4.095253	0.187259	19.810701	0.068873
2865.113000	4.064784	0.187259	19.810385	0.068556
2868.138000	4.061610	0.187259	19.810385	0.068556
2871.037001	4.090809	0.186941	19.810385	0.068556
2874.104000	4.053992	0.187259	19.810066	0.068873
2877.045000	4.053358	0.187259	19.810385	0.068556
2880.045000	4.055262	0.187259	19.810066	0.068873
2883.037000	4.070814	0.187576	19.810385	0.068873
2886.037000	4.080653	0.187259	19.810066	0.068873
2889.037000	4.027014	0.187259	19.810385	0.068556
2892.033000	4.057166	0.187259	19.810066	0.068556
2895.134000	4.077796	0.187259	19.810066	0.068556
2898.045000	4.067005	0.187259	19.810385	0.068873
2901.062000	4.040662	0.187259	19.810066	0.068556
2904.037000	4.100014	0.187259	19.810385	0.068873
2907.046000	4.094618	0.187259	19.810066	0.068873
2910.028000	4.103822	0.187259	19.810066	0.068556
2913.037000	4.065101	0.187259	19.810066	0.068556
2916.038000	4.089222	0.186941	19.810066	0.068556
2919.039000	4.061927	0.187259	19.810066	0.068873
2922.094000	4.063514	0.186941	19.809750	0.068556
2925.035000	4.064784	0.187259	19.810066	0.068556
2928.031000	4.002575	0.187259	19.810066	0.068556
2931.040999	4.074623	0.187259	19.810066	0.068873
2934.040000	4.089857	0.187259	19.809750	0.068556
2937.048000	4.063831	0.187259	19.810066	0.068556
2940.031000	4.025427	0.187259	19.810066	0.068873
2943.141000	4.054945	0.187259	19.809750	0.068556
2946.078000	4.082875	0.187259	19.809750	0.068556
2949.041000	4.092714	0.187259	19.810066	0.068556
2952.041999	4.104140	0.187259	19.810066	0.068556
2955.051000	4.068592	0.187259	19.809750	0.068556
2958.043000	4.097475	0.187259	19.810066	0.068556
2961.043000	4.101283	0.187259	19.810385	0.068556
2964.042000	4.105409	0.187259	19.810385	0.068873
2967.050000	4.075575	0.187259	19.810385	0.068556
2970.097000	4.101918	0.187259	19.810066	0.068556
2973.043000	4.089857	0.187259	19.810066	0.068556
2976.106000	4.050818	0.187259	19.810066	0.068556
2979.079000	4.025427	0.187259	19.810385	0.068556
2982.113000	4.088905	0.187259	19.810066	0.068556
2985.052000	4.103505	0.186941	19.810066	0.068873
2988.044000	4.089857	0.187259	19.810066	0.068556
2991.052000	4.038758	0.187259	19.810066	0.068556
2994.082000	4.107631	0.187259	19.810066	0.068556
2997.124000	3.941955	0.187259	19.810066	0.068556
3000.042000	4.022888	0.187259	19.810066	0.068556
3003.046000	4.037488	0.187259	19.810066	0.068873
3006.046000	4.053040	0.187259	19.810066	0.068556
3009.054000	4.046692	0.186941	19.810066	0.068556
3012.055000	4.065736	0.187259	19.810066	0.068556
3015.047000	4.044788	0.187259	19.810066	0.068556
3018.052000	4.006384	0.187259	19.810385	0.068873
3021.047000	4.073988	0.186941	19.810066	0.068873
3024.048000	4.076527	0.187259	19.810066	0.068556
3027.041000	4.027332	0.187259	19.810066	0.068556
3030.046000	4.049866	0.187259	19.809750	0.068873
3033.050000	4.061610	0.187259	19.809750	0.068556
3036.042000	4.063831	0.186941	19.810066	0.068556
3039.051000	4.027332	0.187259	19.809114	0.068556
3042.051000	4.100014	0.187259	19.809114	0.068556
3045.110000	4.090809	0.186941	19.809750	0.068556
3048.052000	4.083827	0.187259	19.809750	0.068556
3051.128000	4.099379	0.187259	19.810066	0.068556
3054.052000	4.084144	0.187259	19.810066	0.068556
3057.055999	4.064466	0.187259	19.809750	0.068556
3060.044000	4.089857	0.187259	19.809750	0.068556
3063.059999	4.065101	0.187259	19.810066	0.068556
3066.057000	4.096205	0.187259	19.809750	0.068556
3069.056000	4.075257	0.187259	19.810066	0.068556
3072.052000	4.089540	0.186941	19.809750	0.068556
3075.052000	4.100648	0.187259	19.809750	0.068556
3078.084001	4.103505	0.186941	19.809750	0.068556
3081.052000	4.063514	0.186941	19.809750	0.068556
3084.055999	4.065101	0.187259	19.809750	0.068556
3087.052999	4.097475	0.187259	19.810066	0.068556
3090.058000	4.074623	0.187259	19.809750	0.068556
3093.054000	4.062562	0.187259	19.809750	0.068556
3096.049000	4.102235	0.186941	19.809750	0.068556
3099.053000	4.063514	0.187259	19.809750	0.068556
3102.091000	4.101283	0.187259	19.809750	0.068556
3105.053000	4.094935	0.187259	19.809114	0.068556
3108.052999	4.067640	0.186941	19.809750	0.068556
3111.073000	4.009241	0.187259	19.809750	0.068556
3114.050000	4.086683	0.186941	19.809750	0.068556
3117.055000	4.111122	0.187259	19.809750	0.068556
3120.125000	4.027014	0.186941	19.809750	0.068556
3123.150000	4.075257	0.186941	19.809750	0.068556
3126.125000	4.033045	0.187259	19.809750	0.068556
3129.050000	4.093983	0.186941	19.809750	0.068556
3132.050000	4.102235	0.187259	19.809114	0.068556
3135.054000	4.066688	0.186941	19.809750	0.068556
3138.046000	4.023206	0.187259	19.809114	0.068556
3141.045000	4.090175	0.186941	19.809114	0.068556
3144.050000	4.115248	0.186941	19.809114	0.068556
3147.108000	3.991150	0.186941	19.809750	0.068556
3150.067000	4.025110	0.186941	19.809114	0.068556
3153.059000	3.948620	0.186941	19.809750	0.068556
3156.055000	4.089540	0.187259	19.809114	0.068556
3159.062999	3.987341	0.187259	19.809750	0.068556
3162.055000	4.101918	0.187259	19.809750	0.068556
3165.052000	4.101601	0.187259	19.809114	0.068556
3168.048000	4.049866	0.187259	19.809114	0.068556
3171.077000	4.075257	0.186941	19.809114	0.068556
3174.052000	4.126040	0.187259	19.809114	0.068556
3177.111000	4.089540	0.186941	19.809114	0.068556
3180.059000	4.087953	0.187259	19.809114	0.068556
3183.050000	4.080970	0.186941	19.809114	0.068556
3186.059000	4.033362	0.186941	19.809114	0.068556
3189.050000	4.063831	0.186941	19.809114	0.068556
3192.154000	4.111757	0.186941	19.809114	0.068556
3195.070000	4.063514	0.187259	19.809114	0.068556
3198.058000	4.081923	0.187259	19.809750	0.068556
3201.050000	4.051771	0.186941	19.809114	0.068556
3204.063000	4.031775	0.187259	19.809114	0.068556
3207.059000	4.099696	0.187259	19.809114	0.068556
3210.064000	4.063514	0.186941	19.809114	0.068556
3213.151999	4.002893	0.186941	19.809114	0.068556
3216.143000	4.099061	0.187259	19.809114	0.068556
3219.058000	4.075257	0.186941	19.809114	0.068556
3222.141000	4.099379	0.186941	19.809114	0.068556
3225.133000	4.089857	0.186941	19.809114	0.068556
3228.062000	4.039710	0.186941	19.809114	0.068556
3231.108000	4.085414	0.186941	19.809114	0.067921
3234.057000	4.077796	0.186941	19.809114	0.068556
3237.162000	4.114296	0.186941	19.808798	0.068556
3240.069000	4.067323	0.186941	19.808798	0.068556
3243.059000	4.087001	0.186941	19.809114	0.068556
3246.063000	4.097157	0.186941	19.808798	0.068556
3249.063000	4.064466	0.186941	19.809114	0.068556
3252.054000	4.067640	0.186941	19.809750	0.068556
3255.063000	4.096205	0.186941	19.809114	0.068556
3258.143000	4.102235	0.187259	19.809114	0.068556
3261.067000	4.101283	0.186941	19.809114	0.068556
3264.084000	4.052405	0.186941	19.809750	0.068556
3267.062999	4.089540	0.186941	19.809114	0.068556
3270.059000	4.100966	0.186941	19.809750	0.068556
3273.129000	4.063831	0.186941	19.809114	0.068556
3276.063000	4.065736	0.186941	19.809114	0.068556
3279.071000	4.072083	0.186941	19.809114	0.067921
3282.063000	4.077162	0.186941	19.809114	0.068556
3285.059000	4.057484	0.186941	19.809114	0.068556
3288.130000	4.101918	0.186941	19.809114	0.067921
3291.075000	4.092714	0.186941	19.809114	0.068556
3294.154000	4.047645	0.186941	19.809114	0.068556
3297.063000	4.084144	0.186941	19.809114	0.068556
3300.063000	4.104140	0.186941	19.809114	0.068556
3303.055000	4.084144	0.186941	19.808798	0.068556
3306.056000	4.112074	0.186941	19.808798	0.068556
3309.055000	4.086683	0.186941	19.808798	0.068556
3312.056000	4.126040	0.187259	19.808798	0.068556
3315.065000	4.103188	0.186941	19.808798	0.068556
3318.084000	4.042884	0.186941	19.808798	0.067921
3321.088000	4.087953	0.186941	19.809114	0.068556
3324.068000	4.080653	0.186941	19.809114	0.068556
3327.064000	4.094935	0.186941	19.809114	0.068556
3330.072000	4.069227	0.186941	19.809114	0.068556
3333.152000	4.067957	0.186941	19.808798	0.068556
3336.093000	4.113661	0.186941	19.808798	0.068556
3339.069000	4.102235	0.187259	19.808798	0.068556
3342.147999	4.075575	0.186941	19.808798	0.068556
3345.064000	4.062879	0.187259	19.808798	0.068556
3348.122000	4.026380	0.186941	19.809114	0.067921
3351.056000	4.063831	0.186941	19.808798	0.068556
3354.069000	4.140005	0.186941	19.808798	0.068556
3357.057000	4.075257	0.186941	19.808798	0.068556
3360.057000	4.061927	0.186941	19.808798	0.068556
3363.056000	4.063514	0.186941	19.808798	0.068556
3366.147999	4.075257	0.186941	19.808798	0.068556
3369.058000	4.097792	0.186941	19.808798	0.067921
3372.064000	4.086049	0.186941	19.808798	0.068556
3375.068000	4.096840	0.186941	19.808798	0.068556
3378.064000	4.122866	0.186941	19.808479	0.067921
3381.064000	4.088905	0.186941	19.808798	0.068556
3384.068000	4.115248	0.186941	19.808479	0.068556
3387.069000	4.094618	0.186941	19.808479	0.068556
3390.068000	4.110805	0.186941	19.808479	0.067921
3393.102000	4.064784	0.186941	19.808479	0.067921
3396.061000	4.052723	0.186941	19.808798	0.068556
3399.073000	4.053040	0.186941	19.808798	0.067921
3402.065000	4.089857	0.186941	19.808479	0.068556
3405.070000	4.099061	0.186941	19.808479	0.067921
3408.065000	4.099379	0.186941	19.808798	0.068556
3411.069000	4.103822	0.186941	19.808479	0.068556
3414.081000	4.103505	0.186941	19.808798	0.068556
3417.061000	4.102235	0.186941	19.808798	0.068556
3420.065000	4.059705	0.186941	19.808798	0.068556
3423.090000	4.101918	0.186941	19.808798	0.067921
3426.065000	4.061927	0.186941	19.808798	0.068556
3429.137000	4.073036	0.186941	19.808479	0.068556
3432.132000	4.053358	0.186941	19.808798	0.067921
3435.063000	4.070814	0.186941	19.808479	0.068556
3438.077000	4.071766	0.186941	19.808798	0.067921
3441.101000	4.089540	0.186941	19.808479	0.067921
3444.077000	4.085096	0.186941	19.808479	0.068556
3447.073000	4.063197	0.186941	19.808479	0.067921
3450.144000	4.028919	0.186941	19.808798	0.067921
3453.136000	4.064784	0.186941	19.808479	0.067921
3456.161000	4.067323	0.186941	19.808798	0.068556
3459.073000	4.041297	0.186941	19.808479	0.067921
3462.073000	4.103188	0.186941	19.808798	0.068556
3465.066000	4.108266	0.186941	19.808479	0.068556
3468.066000	4.091127	0.186941	19.808479	0.067921
3471.070000	4.062562	0.186941	19.808479	0.067921
3474.132999	4.037488	0.186941	19.808479	0.068556
3477.073999	4.013050	0.186941	19.808798	0.067921
3480.073999	4.101601	0.186941	19.808479	0.067921
3483.070000	4.062879	0.186941	19.808479	0.067921
3486.079000	4.075575	0.186941	19.808479	0.067921
3489.070000	4.089540	0.186941	19.808479	0.067921
3492.066000	4.038440	0.186941	19.808479	0.068556
3495.066000	4.101918	0.186941	19.808798	0.067921
3498.076000	4.034949	0.186941	19.808798	0.068556
3501.081000	4.055262	0.186941	19.808798	0.068556
3504.076000	4.081923	0.186941	19.808479	0.067921
3507.148000	4.102235	0.186941	19.808479	0.067921
3510.088000	4.008606	0.186941	19.808479	0.067921
3513.133000	4.050501	0.186941	19.808798	0.068556
3516.069000	4.065736	0.186941	19.808479	0.067921
3519.074000	4.038758	0.186941	19.808479	0.067921
3522.081999	4.061610	0.186941	19.808798	0.067921
3525.081999	4.051136	0.186941	19.808798	0.067921
3528.069000	3.976232	0.186941	19.808798	0.067921
3531.120000	4.101601	0.186941	19.808798	0.067921
3534.182000	4.062562	0.186941	19.808798	0.067921
3537.074000	4.139052	0.186941	19.808798	0.067921
3540.074000	4.102870	0.186941	19.808798	0.067921
3543.080000	4.066053	0.186941	19.808798	0.067921
3546.080000	4.041297	0.186941	19.808479	0.067921
3549.102000	4.029871	0.186941	19.808798	0.067921
3552.078000	4.097792	0.186941	19.808479	0.067921
3555.085999	4.075892	0.186941	19.808479	0.067921
3558.082000	4.104774	0.186941	19.808479	0.067921
3561.082000	4.114296	0.186941	19.808479	0.067921
3564.078000	4.126357	0.186941	19.808479	0.068556
3567.083000	4.101601	0.186941	19.808479	0.067921
3570.088000	4.101918	0.186941	19.808163	0.067921
3573.080000	4.127944	0.186941	19.808163	0.067921
3576.077000	4.089540	0.186941	19.808163	0.067921
3579.147999	4.034632	0.186941	19.808479	0.068556
3582.085999	4.099061	0.186941	19.808479	0.067921
3585.095000	4.096205	0.186941	19.808479	0.067921
3588.082000	4.102235	0.186941	19.808479	0.067921
3591.090000	4.112709	0.186941	19.808163	0.067921
3594.078000	4.104140	0.186941	19.808479	0.067921
3597.090000	4.080018	0.186941	19.808163	0.067921
3600.085999	4.092079	0.186941	19.808479	0.067921
3603.087000	4.139687	0.186941	19.808163	0.067921
3606.158000	4.026697	0.186941	19.808479	0.067921
3609.087000	4.025427	0.186941	19.808479	0.067921
3612.182000	4.101601	0.186941	19.808479	0.067921
3615.079000	4.102235	0.186941	19.808479	0.067921
3618.079000	4.101918	0.186941	19.808479	0.067921
3621.088000	4.103188	0.186941	19.808479	0.067921
3624.084001	4.101918	0.186941	19.808163	0.067921
3627.080000	4.002893	0.186941	19.808479	0.067921
3630.084000	4.079066	0.186941	19.808479	0.067921
3633.088000	4.098109	0.186941	19.808479	0.067921
3636.084000	4.110170	0.186941	19.808479	0.067921
3639.121000	4.102870	0.186941	19.808798	0.067921
3642.080000	4.101601	0.186941	19.808479	0.067921
3645.085000	4.080970	0.186307	19.808479	0.067921
3648.081000	4.074623	0.186307	19.808479	0.067921
3651.081000	4.092079	0.186941	19.808479	0.067921
3654.088999	4.059071	0.186941	19.808479	0.067921
3657.089000	4.016223	0.186941	19.808479	0.067921
3660.090000	4.027332	0.186941	19.808479	0.067921
3663.085000	4.073988	0.186941	19.808798	0.067921
3666.090000	4.100014	0.186941	19.808798	0.067921
3669.090000	4.084779	0.186941	19.808798	0.067921
3672.094000	4.085414	0.186941	19.808798	0.067921
3675.090000	4.095570	0.186941	19.808798	0.067921
3678.085999	4.095253	0.186941	19.808798	0.067921
3681.116000	4.053358	0.186941	19.808479	0.067921
3684.132000	4.057166	0.186307	19.808479	0.067921
3687.090000	4.075575	0.186941	19.808798	0.067921
3690.095000	4.089222	0.186941	19.808798	0.067921
3693.091000	4.037806	0.186307	19.808479	0.067921
3696.088000	4.075575	0.186941	19.808479	0.067921
3699.130000	4.063831	0.186941	19.808479	0.067921
3702.093000	4.037488	0.186307	19.808163	0.067921
3705.088999	4.038440	0.186307	19.808479	0.067921
3708.092999	3.999402	0.186307	19.808479	0.067921
3711.092999	4.114296	0.186307	19.808479	0.067921
3714.094000	4.101601	0.186307	19.808163	0.067921
3717.130000	4.071131	0.186941	19.808163	0.067921
3720.094000	4.043201	0.186941	19.808163	0.067921
3723.094000	4.027649	0.186941	19.808479	0.067921
3726.161000	4.044471	0.186307	19.808479	0.067921
3729.085999	4.101918	0.186941	19.808163	0.067921
3732.085000	4.088905	0.186941	19.808163	0.067921
3735.090000	4.101601	0.186941	19.808479	0.067921
3738.099000	4.101918	0.186941	19.808163	0.067921
3741.094000	4.075257	0.186941	19.808163	0.067921
3744.095000	4.027014	0.186941	19.808479	0.067921
3747.094000	4.060023	0.186307	19.808163	0.067921
3750.115000	4.096840	0.186307	19.808163	0.067921
3753.111000	4.113979	0.186307	19.808163	0.067921
3756.102000	4.076527	0.186941	19.808163	0.067921
3759.090000	4.040979	0.186941	19.808163	0.067921
3762.095000	4.095253	0.186941	19.808163	0.067921
3765.098000	4.095888	0.186941	19.808479	0.067921
3768.161000	4.072718	0.186307	19.807846	0.067921
3771.182000	4.066688	0.186941	19.808163	0.067921
3774.094000	4.065736	0.186307	19.808163	0.067921
3777.094000	4.042884	0.186307	19.807846	0.067921
3780.085000	4.107314	0.186941	19.808163	0.067921
3783.102000	4.072083	0.186941	19.807846	0.067921
3786.090000	4.097157	0.186941	19.808163	0.067921
3789.095000	4.073670	0.186941	19.807846	0.067921
3792.086000	4.073353	0.186307	19.808163	0.067921
3795.158000	4.081288	0.186941	19.808163	0.067921
3798.191000	4.067323	0.186307	19.807846	0.067921
3801.092000	4.061610	0.186307	19.808163	0.067921
3804.188001	4.065418	0.186941	19.807846	0.067921
3807.092000	4.029553	0.186307	19.807846	0.067921
3810.107999	4.040662	0.186307	19.808163	0.067921
3813.095999	4.062879	0.186941	19.808163	0.067921
3816.096000	4.100648	0.186941	19.808163	0.067921
3819.092000	4.088588	0.186307	19.808163	0.067921
3822.096000	4.101601	0.186941	19.808163	0.067921
3825.104000	4.062562	0.186307	19.807846	0.067921
3828.096000	4.115248	0.186307	19.807846	0.067921
3831.101000	4.101601	0.186307	19.807846	0.067921
3834.092000	4.101601	0.186941	19.808163	0.067921
3837.094000	4.103505	0.186941	19.807846	0.067921
3840.110000	4.075575	0.186307	19.807846	0.067921
3843.097000	4.101601	0.186941	19.808163	0.067921
3846.101000	4.110805	0.186307	19.808163	0.067921
3849.114000	4.114296	0.186307	19.808163	0.067921
3852.105000	4.065736	0.186307	19.808163	0.067921
3855.097000	4.066053	0.186307	19.807846	0.067921
3858.166000	4.073036	0.186307	19.807846	0.067921
3861.170000	4.085414	0.186307	19.807846	0.067604
3864.098000	4.108266	0.186307	19.807846	0.067921
3867.111000	4.101601	0.186307	19.807846	0.067921
3870.095000	4.064784	0.186307	19.807846	0.067921
3873.095000	4.103188	0.186941	19.807846	0.067604
3876.164000	4.027014	0.186307	19.807846	0.067921
3879.121000	4.029236	0.186307	19.807846	0.067921
3882.092000	4.016223	0.186941	19.807846	0.067921
3885.099999	4.017493	0.186307	19.807846	0.067921
3888.170000	4.061610	0.186941	19.807846	0.067921
3891.091000	4.095253	0.186307	19.808163	0.067921
3894.102000	4.048597	0.186307	19.807846	0.067921
3897.103000	4.091762	0.186307	19.807846	0.067921
3900.095000	4.073036	0.186307	19.807846	0.067921
3903.141000	4.098744	0.186307	19.807211	0.067921
3906.104000	4.099061	0.186307	19.807846	0.067921
3909.112000	4.101601	0.186307	19.807846	0.067921
3912.162000	4.075257	0.186307	19.807211	0.067921
3915.116000	4.061927	0.186307	19.807211	0.067921
3918.109000	4.025110	0.186307	19.807211	0.067921
3921.105000	4.103188	0.186307	19.807211	0.067921
3924.100000	4.136196	0.186307	19.807211	0.067921
3927.104000	4.101601	0.186941	19.807846	0.067921
3930.109000	4.078749	0.186307	19.807846	0.067921
3933.104000	4.033045	0.186307	19.807211	0.067921
3936.109000	4.025427	0.186307	19.807846	0.067921
3939.105000	4.037488	0.186307	19.807846	0.067921
3942.179000	4.065418	0.186307	19.807846	0.067921
3945.129000	4.042566	0.186307	19.807211	0.067921
3948.146000	4.024793	0.186307	19.807211	0.067921
3951.096000	4.063831	0.186307	19.807846	0.067604
3954.157000	4.086683	0.186307	19.807211	0.067921
3957.163000	4.047962	0.186307	19.807211	0.067921
3960.116000	4.102235	0.186307	19.807846	0.067921
3963.095999	4.101601	0.186307	19.807211	0.067921
3966.209000	4.075575	0.186307	19.807211	0.067921
3969.108000	4.038758	0.186307	19.807211	0.067921
3972.137000	4.025745	0.186307	19.807211	0.067921
3975.121000	4.066053	0.186307	19.807211	0.067921
3978.171000	4.053040	0.186307	19.807211	0.067921
3981.105000	4.086683	0.186307	19.806892	0.067921
3984.158000	4.073670	0.186307	19.807211	0.067604
3987.109000	4.076844	0.186307	19.807211	0.067921
3990.095000	4.068910	0.186307	19.807211	0.067921
3993.107000	4.101601	0.186307	19.807211	0.067604
3996.097000	4.080970	0.186307	19.807846	0.067604
3999.105000	4.087953	0.186307	19.807211	0.067921
4002.106000	4.099061	0.186307	19.807211	0.067604
4005.109000	4.062879	0.186307	19.807211	0.067921
4008.097000	4.063514	0.186307	19.807211	0.067921
4011.105000	4.053358	0.186307	19.807211	0.067921
4014.105000	4.027649	0.186941	19.807211	0.067921
4017.103000	4.030506	0.186307	19.807211	0.067921
4020.120000	4.098109	0.186307	19.806892	0.067921
4023.128000	4.077162	0.186307	19.807211	0.067921
4026.107000	4.061610	0.186307	19.807211	0.067921
4029.115000	3.978137	0.186307	19.807211	0.067604
4032.112000	4.061292	0.186307	19.807211	0.067921
4035.166000	4.062879	0.186307	19.807211	0.067921
4038.116000	4.062562	0.186307	19.807211	0.067921
4041.118999	4.025110	0.186307	19.807211	0.067604
4044.132999	3.986389	0.186307	19.807211	0.067604
4047.111000	4.074623	0.186307	19.807211	0.067921
4050.107000	4.061292	0.186307	19.807211	0.067604
4053.108000	4.062879	0.186307	19.807211	0.067921
4056.129000	4.056531	0.186307	19.807211	0.067921
4059.108000	4.057801	0.186307	19.807211	0.067604
4062.104000	4.060658	0.186307	19.807211	0.067604
4065.104000	4.076844	0.186307	19.806892	0.067604
4068.106000	4.042884	0.186307	19.807211	0.067921
4071.118000	4.045740	0.186307	19.807211	0.067921
4074.102000	4.039075	0.186307	19.807211	0.067604
4077.114000	4.091444	0.186941	19.807211	0.067604
4080.118000	4.100966	0.186307	19.806892	0.067604
4083.111000	4.126992	0.186307	19.807211	0.067604
4086.106000	4.088905	0.186307	19.807211	0.067921
4089.107000	4.089540	0.186307	19.807211	0.067604
4092.103001	4.037806	0.186307	19.807211	0.067604
4095.112000	4.026697	0.186307	19.807211	0.067921
4098.171000	4.050501	0.186307	19.807211	0.067604
4101.128000	4.063831	0.186307	19.807211	0.067604
4104.116000	4.064466	0.186307	19.807211	0.067604
4107.192000	4.131117	0.186307	19.806892	0.067604
4110.116000	4.105409	0.186307	19.806892	0.067921
4113.183000	4.105727	0.186307	19.807211	0.067604
4116.113000	4.063831	0.186307	19.807211	0.067604
4119.125000	4.067323	0.186307	19.806892	0.067921
4122.113000	4.085414	0.186307	19.807211	0.067921
4125.125000	4.074623	0.186307	19.807211	0.067604
4128.121000	4.108266	0.186307	19.806892	0.067604
4131.119000	4.101601	0.186307	19.807211	0.067604
4134.122000	4.089222	0.186307	19.806892	0.067604
4137.115000	4.089222	0.186307	19.807211	0.067604
4140.115000	4.004162	0.186307	19.806892	0.067604
4143.119000	4.063514	0.186307	19.806892	0.067604
4146.114999	4.075575	0.186307	19.806892	0.067921
4149.111000	4.017175	0.186307	19.806892	0.067604
4152.107000	4.053040	0.186307	19.806892	0.067604
4155.111000	4.063831	0.186307	19.806892	0.067604
4158.116000	4.082875	0.186307	19.807211	0.067604
4161.107000	4.025427	0.186307	19.806892	0.067604
4164.107000	4.076527	0.186307	19.806892	0.067921
4167.115000	4.074940	0.186307	19.806892	0.067604
4170.126999	4.101601	0.186307	19.806892	0.067604
4173.132000	4.048914	0.186307	19.807211	0.067604
4176.120000	4.074940	0.186307	19.807211	0.067921
4179.176000	4.063197	0.186307	19.806892	0.067604
4182.186000	4.062879	0.186307	19.806259	0.067921
4185.116000	4.088588	0.186307	19.806892	0.067604
4188.187000	4.095253	0.186307	19.806892	0.067921
4191.117000	4.074623	0.186307	19.806892	0.067921
4194.112000	4.082875	0.186307	19.806892	0.067604
4197.116000	4.085096	0.186307	19.806892	0.067604
4200.138000	4.112074	0.186307	19.806892	0.067604
4203.112000	4.097792	0.186307	19.806892	0.067604
4206.167000	4.064784	0.186307	19.806892	0.067604
4209.112000	4.082875	0.186307	19.806892	0.067604
4212.217000	4.099696	0.186307	19.806259	0.067604
4215.116000	4.100648	0.186307	19.806259	0.067604
4218.129001	4.113344	0.186307	19.806892	0.067604
4221.116000	4.039075	0.186307	19.806892	0.067604
4224.188000	4.063197	0.186307	19.806259	0.067604
4227.208000	4.100966	0.186307	19.806259	0.067921
4230.166000	4.136830	0.186307	19.806259	0.067921
4233.112000	4.102235	0.186307	19.806259	0.067604
4236.120000	4.123500	0.186307	19.806259	0.067604
4239.137000	4.069862	0.186307	19.806259	0.067604
4242.158000	4.066053	0.186307	19.806892	0.067604
4245.199000	4.091444	0.186307	19.806259	0.067921
4248.116000	4.083509	0.186307	19.806259	0.067604
4251.116000	4.070497	0.186307	19.806259	0.067604
4254.121000	4.045740	0.186307	19.806259	0.067921
4257.113000	4.101918	0.186307	19.806259	0.067604
4260.201000	4.102235	0.186307	19.806259	0.067604
4263.118001	4.101918	0.186307	19.806892	0.067604
4266.118001	4.053358	0.186307	19.806259	0.067604
4269.118001	4.045105	0.186307	19.806259	0.067604
4272.110001	4.042884	0.186307	19.806259	0.067604
4275.114000	4.032410	0.186307	19.806259	0.067604
4278.176000	4.063197	0.186307	19.806259	0.067604
4281.114000	4.104140	0.186307	19.806259	0.067921
4284.111000	4.090175	0.186307	19.806259	0.067604
4287.116000	4.086049	0.186307	19.806259	0.067604
4290.120000	4.043836	0.186307	19.805941	0.067604
4293.116000	4.100966	0.186307	19.806259	0.067604
4296.122000	4.060975	0.186307	19.806259	0.067921
4299.119000	4.088905	0.186307	19.806259	0.067604
4302.123000	4.025427	0.186307	19.806259	0.067604
4305.144000	4.025110	0.186307	19.806259	0.067604
4308.124000	4.087001	0.186307	19.806892	0.067921
4311.123000	4.100966	0.186307	19.806259	0.067604
4314.127000	4.100648	0.186307	19.806259	0.067921
4317.116000	4.102235	0.186307	19.806259	0.067604
4320.128000	4.096840	0.186307	19.806259	0.067604
4323.116000	4.088905	0.186307	19.805941	0.067604
4326.124000	4.102235	0.186307	19.806259	0.067604
4329.128000	4.110805	0.186307	19.806259	0.067604
4332.128000	4.101601	0.186307	19.806259	0.067604
4335.179000	4.052405	0.186307	19.805941	0.067604
4338.116000	4.097792	0.186307	19.806259	0.067604
4341.126000	4.090175	0.186307	19.805941	0.067604
4344.122000	4.101283	0.186307	19.805941	0.067604
4347.118001	4.088905	0.186307	19.805941	0.067604
4350.131000	4.026697	0.186307	19.806259	0.067604
4353.138000	4.101918	0.186307	19.805941	0.067604
4356.198000	4.100014	0.186307	19.805941	0.067604
4359.129000	4.134292	0.185989	19.805941	0.067604
4362.124000	4.100966	0.185989	19.805941	0.067604
4365.130000	4.101601	0.186307	19.805941	0.067604
4368.200000	4.102235	0.186307	19.805941	0.067604
4371.142000	4.094618	0.186307	19.806259	0.067604
4374.127000	4.073353	0.186307	19.805941	0.067604
4377.139000	4.061610	0.186307	19.806259	0.067604
4380.131000	4.073988	0.186307	19.805941	0.067604
4383.143000	4.061927	0.185989	19.805941	0.067604
4386.190000	4.070814	0.186307	19.805305	0.067604
4389.136000	4.092079	0.186307	19.805305	0.067604
4392.136000	4.107631	0.186307	19.805941	0.067604
4395.186000	4.095570	0.186307	19.805941	0.067604
4398.128000	4.096205	0.186307	19.805941	0.067604
4401.133000	4.108901	0.186307	19.805941	0.067604
4404.132999	4.096205	0.186307	19.805941	0.067604
4407.125000	4.101601	0.186307	19.805941	0.067604
4410.221000	4.077162	0.186307	19.805941	0.067604
4413.129000	4.032410	0.186307	19.805941	0.067604
4416.124000	4.034632	0.186307	19.805941	0.067604
4419.155000	4.044788	0.186307	19.805941	0.067604
4422.133000	4.098744	0.186307	19.805941	0.067604
4425.137000	4.127309	0.186307	19.805941	0.067604
4428.217000	4.101601	0.186307	19.805941	0.067604
4431.185999	4.101283	0.185989	19.805941	0.067604
4434.199999	4.102235	0.185989	19.805941	0.067604
4437.142000	4.113979	0.186307	19.805941	0.067604
4440.132999	4.101918	0.186307	19.805305	0.067604
4443.125000	4.102235	0.185989	19.805941	0.067604
4446.137000	4.102870	0.185989	19.805941	0.067604
4449.129000	4.101918	0.186307	19.805941	0.067604
4452.199000	4.103188	0.185989	19.805941	0.067604
4455.183000	4.083827	0.186307	19.805941	0.067604
4458.138000	4.104140	0.186307	19.805941	0.067604
4461.146000	4.080970	0.186307	19.805941	0.067604
4464.130000	4.080653	0.186307	19.805941	0.067604
4467.124000	4.101918	0.186307	19.805941	0.067604
4470.125000	4.061927	0.186307	19.805305	0.067604
4473.157000	4.053675	0.186307	19.805941	0.067604
4476.150000	4.075892	0.186307	19.805305	0.067604
4479.125000	4.099696	0.186307	19.805305	0.067604
4482.132999	4.099061	0.186307	19.805305	0.067604
4485.129000	4.088905	0.186307	19.805941	0.067604
4488.186000	4.088905	0.186307	19.805941	0.067604
4491.134000	4.062562	0.186307	19.805941	0.067604
4494.134000	4.025745	0.186307	19.805941	0.067604
4497.134000	4.063197	0.185989	19.805941	0.067604
4500.196000	4.073670	0.185989	19.805305	0.067604
4503.130000	4.081605	0.186307	19.805305	0.067604
4506.125000	4.057166	0.186307	19.805941	0.067604
4509.125000	4.080970	0.186307	19.805941	0.067604
4512.143000	4.061292	0.185989	19.805941	0.067604
4515.239000	4.050818	0.186307	19.805941	0.067604
4518.138000	4.061927	0.186307	19.805941	0.067604
4521.138000	4.061292	0.185989	19.805941	0.067604
4524.146000	4.075892	0.186307	19.805941	0.067604
4527.134000	4.088588	0.185989	19.805941	0.067604
4530.126000	4.057166	0.185989	19.805941	0.067604
4533.131000	3.920690	0.185989	19.805941	0.067604
4536.135000	4.097792	0.185989	19.805941	0.067604
4539.140000	4.093666	0.186307	19.805941	0.067604
4542.149000	4.061292	0.186307	19.805941	0.067604
4545.132000	4.038758	0.186307	19.805941	0.067604
4548.159000	4.027332	0.185989	19.805941	0.067604
4551.137000	3.989563	0.186307	19.805941	0.067604
4554.137000	4.058436	0.186307	19.805941	0.067604
4557.134000	4.075892	0.186307	19.805941	0.067604
4560.137000	4.103822	0.186307	19.805941	0.067604
4563.137000	4.027014	0.186307	19.805941	0.067604
4566.145000	4.113344	0.186307	19.805305	0.067604
4569.137000	4.100014	0.185989	19.805305	0.067604
4572.138000	4.113661	0.185989	19.805941	0.067604
4575.154000	4.113979	0.185989	19.805941	0.067604
4578.137000	4.101283	0.185989	19.805941	0.067604
4581.137000	4.049866	0.185989	19.805305	0.067604
4584.138000	4.096205	0.186307	19.805941	0.067604
4587.142000	4.092079	0.185989	19.805305	0.067604
4590.132999	4.090809	0.186307	19.805305	0.067604
4593.145000	4.083509	0.185989	19.805941	0.067604
4596.142000	4.089857	0.185989	19.805941	0.067604
4599.205000	4.079066	0.186307	19.805941	0.067604
4602.176000	4.101918	0.186307	19.805941	0.067604
4605.138000	4.091444	0.186307	19.805305	0.067604
4608.130000	4.101918	0.185989	19.805305	0.067604
4611.230000	4.126357	0.185989	19.805941	0.067604
4614.213999	4.100014	0.185989	19.805941	0.067604
4617.139000	4.073036	0.186307	19.805941	0.067604
4620.216000	4.088905	0.185989	19.805305	0.067604
4623.143000	4.062562	0.185989	19.805941	0.067604
4626.132000	4.037488	0.185989	19.805941	0.067604
4629.148000	4.100648	0.186307	19.805941	0.067604
4632.142000	4.099061	0.185989	19.805305	0.067286
4635.137000	4.042884	0.185989	19.805941	0.067604
4638.171000	4.080018	0.186307	19.805941	0.067604
4641.142000	4.092714	0.186307	19.805941	0.067604
4644.196000	4.106044	0.185989	19.805941	0.067604
4647.142000	4.101283	0.185989	19.805941	0.067604
4650.155000	4.101918	0.185989	19.805941	0.067604
4653.164000	4.093983	0.185989	19.805941	0.067286
4656.135000	4.060975	0.185989	19.805305	0.067286
4659.214000	4.082875	0.185989	19.805941	0.067604
4662.144000	4.099696	0.185989	19.805941	0.067604
4665.173999	4.084144	0.185989	19.805941	0.067604
4668.144000	4.108266	0.185989	19.805941	0.067604
4671.144000	4.107948	0.185989	19.805941	0.067604
4674.165000	4.096840	0.185989	19.805305	0.067604
4677.157000	4.113661	0.185989	19.805305	0.067286
4680.148000	4.101918	0.185989	19.805941	0.067604
4683.144000	4.089540	0.186307	19.805941	0.067604
4686.136000	4.062562	0.185989	19.805305	0.067286
4689.135000	4.038758	0.185989	19.805305	0.067604
4692.140000	4.067640	0.185989	19.805941	0.067604
4695.145000	4.075575	0.185989	19.805305	0.067604
4698.136000	4.101601	0.185989	19.805305	0.067604
4701.144000	4.101601	0.185989	19.805305	0.067604
4704.136000	4.100014	0.185989	19.805941	0.067604
4707.135000	4.101283	0.185989	19.805305	0.067604
4710.144000	4.101283	0.185989	19.805305	0.067604
4713.227000	4.074623	0.185989	19.805941	0.067604
4716.173000	4.100014	0.185989	19.805941	0.067604
4719.136000	4.097475	0.185989	19.805305	0.067604
4722.156000	4.107314	0.185989	19.805305	0.067604
4725.140000	4.088588	0.186307	19.805941	0.067286
4728.145000	4.078114	0.185989	19.805941	0.067604
4731.211000	4.126992	0.185989	19.805941	0.067604
4734.144000	4.069544	0.185989	19.805305	0.067604
4737.153000	4.073353	0.185989	19.805941	0.067604
4740.144000	4.014319	0.185989	19.805305	0.067604
4743.140000	4.112074	0.185989	19.805941	0.067604
4746.149000	4.101918	0.185989	19.805941	0.067604
4749.151999	4.101283	0.185989	19.805305	0.067604
4752.136000	4.101918	0.185989	19.805941	0.067604
4755.136000	4.102235	0.185989	19.805941	0.067286
4758.140000	4.063514	0.185989	19.805305	0.067604
4761.136000	4.026697	0.185989	19.805941	0.067604
4764.140000	4.100648	0.185989	19.805941	0.067604
4767.199000	4.099696	0.185989	19.805305	0.067604
4770.151999	4.051453	0.185989	19.805305	0.067604
4773.140000	4.028919	0.185989	19.805305	0.067604
4776.136000	4.068910	0.185989	19.805941	0.067604
4779.136000	4.067640	0.185989	19.805941	0.067604
4782.141000	4.051136	0.185989	19.805941	0.067286
4785.136000	4.107314	0.185989	19.805941	0.067604
4788.141000	4.095253	0.185989	19.805941	0.067604
4791.157000	4.076844	0.185989	19.805941	0.067286
4794.150000	4.087001	0.185989	19.805941	0.067286
4797.145000	4.083827	0.185989	19.805941	0.067604
4800.145000	4.101918	0.186307	19.805941	0.067286
4803.136000	4.063831	0.185989	19.805305	0.067286
4806.162000	4.028919	0.185989	19.805941	0.067604
4809.145000	4.071131	0.185989	19.805941	0.067604
4812.142000	4.082875	0.185989	19.805305	0.067604
4815.142000	4.101601	0.185989	19.805305	0.067286
4818.197000	4.075257	0.185989	19.805305	0.067286
4821.142000	4.067957	0.185989	19.805305	0.067286
4824.146000	4.089857	0.185989	19.805305	0.067286
4827.158999	4.083509	0.185989	19.805305	0.067604
4830.235000	4.096205	0.185989	19.805305	0.067604
4833.152000	4.027649	0.185989	19.805305	0.067604
4836.151000	4.100966	0.185989	19.805305	0.067604
4839.159000	4.112709	0.185989	19.805305	0.067604
4842.152000	4.087636	0.185989	19.805305	0.067604
4845.143000	4.101283	0.185989	19.805305	0.067286
4848.201000	4.072718	0.185989	19.805305	0.067286
4851.252000	4.105092	0.185989	19.805305	0.067604
4854.148000	4.034314	0.185989	19.805305	0.067286
4857.143000	4.095888	0.185989	19.804989	0.067286
4860.147000	4.089540	0.185989	19.804989	0.067604
4863.173000	4.085414	0.185989	19.804989	0.067286
4866.158000	4.067957	0.185989	19.805305	0.067286
4869.187000	4.017810	0.185989	19.805305	0.067604
4872.154999	4.067323	0.185989	19.805305	0.067286
4875.242000	4.101601	0.185989	19.805305	0.067286
4878.163000	4.101918	0.185989	19.805305	0.067604
4881.151999	4.101918	0.185989	19.804989	0.067286
4884.156000	4.025427	0.185989	19.805305	0.067604
4887.181000	4.087001	0.185989	19.805305	0.067286
4890.227000	4.100648	0.185989	19.805305	0.067604
4893.153000	4.062562	0.185989	19.805305	0.067286
4896.158000	4.026380	0.185989	19.805305	0.067604
4899.206999	4.073988	0.185989	19.805305	0.067286
4902.210999	4.060658	0.185989	19.805305	0.067286
4905.149000	4.097475	0.185989	19.805305	0.067604
4908.170000	4.092714	0.185989	19.805305	0.067286
4911.233000	4.078114	0.185989	19.805305	0.067286
4914.153000	4.079066	0.185989	19.805305	0.067286
4917.166000	4.080970	0.185989	19.805305	0.067604
4920.159000	4.073988	0.185989	19.805305	0.067286
4923.145999	4.101601	0.185989	19.805305	0.067604
4926.150000	4.060023	0.185989	19.805305	0.067286
4929.146000	4.084779	0.185989	19.805305	0.067286
4932.155000	4.113661	0.185989	19.805305	0.067286
4935.155000	4.048914	0.185989	19.805305	0.067286
4938.154000	4.026697	0.185989	19.805305	0.067286
4941.155000	4.086049	0.185989	19.804989	0.067286
4944.234000	4.083509	0.185989	19.804989	0.067286
4947.158000	4.088905	0.185989	19.804989	0.067604
4950.258000	4.039392	0.185989	19.805305	0.067286
4953.154000	4.045423	0.185989	19.805305	0.067286
4956.158000	4.043519	0.185989	19.805305	0.067286
4959.243000	4.015588	0.185989	19.805305	0.067286
4962.160000	4.060975	0.185989	19.805305	0.067604
4965.202000	4.063514	0.185989	19.805305	0.067286
4968.244000	4.039075	0.185989	19.805305	0.067604
4971.156000	4.011145	0.185989	19.804989	0.067286
4974.148000	4.103188	0.185989	19.805305	0.067286
4977.159999	4.110170	0.185989	19.805305	0.067286
4980.180999	4.100648	0.185989	19.805305	0.067286
4983.148000	4.075257	0.185989	19.805305	0.067286
4986.156000	4.042884	0.185989	19.805305	0.067286
4989.192000	4.117787	0.186307	19.805305	0.067286
4992.248000	4.054627	0.185989	19.805305	0.067286
4995.156000	4.100014	0.185989	19.804989	0.067286
4998.153000	4.033362	0.185989	19.805305	0.067286
5001.151999	4.093031	0.185989	19.804989	0.067286
5004.192999	4.068592	0.185989	19.804989	0.067286
5007.148000	4.061292	0.185989	19.804672	0.067286
5010.161000	4.024793	0.185989	19.804989	0.067604
5013.156000	4.061292	0.185989	19.804989	0.067604
5016.160000	4.100014	0.185989	19.804672	0.067286
5019.173000	4.126357	0.185989	19.804989	0.067286
5022.168000	4.139369	0.185989	19.804989	0.067286
5025.193000	4.127309	0.185989	19.804989	0.067286
5028.164000	4.101918	0.185989	19.804989	0.067604
5031.147999	4.061610	0.185989	19.804989	0.067286
5034.227000	4.113027	0.185989	19.805305	0.067286
5037.156000	4.041297	0.185989	19.804989	0.067286
5040.153000	4.120327	0.185989	19.804989	0.067286
5043.158000	4.080653	0.185989	19.804989	0.067286
5046.157000	3.982580	0.185989	19.804989	0.067286
5049.157000	4.092079	0.185989	19.805305	0.067286
5052.169001	4.043519	0.185989	19.805305	0.067286
5055.157000	4.061610	0.185989	19.805305	0.067286
5058.161000	4.022888	0.185989	19.804989	0.067286
5061.149000	4.023840	0.185989	19.804989	0.067286
5064.153000	4.086049	0.185989	19.804989	0.067286
5067.190000	4.098109	0.185989	19.804989	0.067286
5070.153000	4.100014	0.185989	19.804989	0.067286
5073.199000	4.101601	0.185989	19.804989	0.067286
5076.188001	4.062879	0.185989	19.804989	0.067286
5079.159999	4.064466	0.185989	19.804672	0.067286
5082.264000	4.028284	0.185989	19.804989	0.067286
5085.189000	4.081288	0.185989	19.804989	0.067286
5088.157000	4.067957	0.185989	19.804989	0.067286
5091.153000	4.077479	0.185989	19.804989	0.067286
5094.203000	4.051136	0.185989	19.804989	0.067286
5097.157000	4.077796	0.185989	19.804989	0.067286
5100.157000	4.101918	0.185989	19.804989	0.067286
5103.162001	4.091762	0.185989	19.804989	0.067286
5106.158000	4.090809	0.185989	19.804989	0.067286
5109.242000	4.092714	0.185989	19.804989	0.067286
5112.154999	4.095888	0.185989	19.804672	0.067604
5115.184000	4.089222	0.185989	19.804989	0.067286
5118.159000	4.026380	0.185989	19.805305	0.067286
5121.155000	4.016858	0.185989	19.804989	0.067286
5124.180000	4.085096	0.185989	19.804989	0.067286
5127.167000	4.093983	0.185989	19.804989	0.067286
5130.160000	4.095888	0.185989	19.804989	0.067286
5133.154999	4.100014	0.185989	19.804989	0.067286
5136.242000	4.123817	0.185989	19.804989	0.067286
5139.167000	3.986706	0.185989	19.804672	0.067286
5142.196000	4.101283	0.185989	19.804989	0.067286
5145.165000	4.060975	0.185989	19.804672	0.067286
5148.172000	4.061927	0.185989	19.804989	0.067286
5151.160000	4.024793	0.185989	19.804989	0.067286
5154.165000	4.011780	0.185989	19.804989	0.067286
5157.156000	4.101283	0.185989	19.804989	0.067286
5160.160000	4.100014	0.185989	19.804989	0.067286
5163.164000	4.060658	0.185989	19.804989	0.067286
5166.160000	4.090809	0.185989	19.804989	0.067286
5169.156000	4.065101	0.185989	19.804989	0.067604
5172.164000	4.099061	0.185989	19.804989	0.067286
5175.201000	4.079383	0.185989	19.804672	0.067604
5178.164000	4.045423	0.185989	19.804672	0.067286
5181.218000	4.095253	0.185989	19.804989	0.067286
5184.169000	4.082557	0.185989	19.804672	0.067286
5187.176000	4.091444	0.185989	19.804989	0.067286
5190.168000	4.104774	0.185989	19.804989	0.067286
5193.164000	4.100648	0.185989	19.804672	0.067286
5196.165000	4.099379	0.185989	19.804672	0.067286
5199.160000	4.101601	0.185989	19.804672	0.067286
5202.189000	4.025745	0.185672	19.804672	0.067286
5205.160000	4.100014	0.185989	19.804672	0.067286
5208.164000	4.071449	0.185672	19.804989	0.067286
5211.165000	4.061610	0.185672	19.804672	0.067286
5214.154999	4.061292	0.185989	19.804672	0.067286
5217.160000	4.058753	0.185989	19.804672	0.067286
5220.165000	4.077796	0.185989	19.804672	0.067286
5223.164000	4.093031	0.185989	19.804989	0.067286
5226.160000	4.029871	0.185989	19.804672	0.067604
5229.160000	4.065101	0.185989	19.804989	0.067286
5232.164000	4.115248	0.185672	19.804672	0.067286
5235.156000	4.052723	0.185989	19.804672	0.067286
5238.225999	4.075575	0.185989	19.804672	0.067286
5241.252000	4.080970	0.185989	19.804672	0.067286
5244.156000	4.088588	0.185989	19.804989	0.067286
5247.235000	4.132387	0.185989	19.804672	0.067286
5250.168000	4.100966	0.185989	19.804672	0.067286
5253.156000	4.061292	0.185989	19.804672	0.067286
5256.193000	4.085731	0.185989	19.804672	0.067286
5259.160000	4.093666	0.185989	19.804672	0.067286
5262.159999	4.061610	0.185989	19.804354	0.067286
5265.160000	4.063831	0.185989	19.804672	0.067286
5268.164000	4.169839	0.185989	19.804354	0.067286
5271.169000	4.090175	0.185989	19.804354	0.067286
5274.160000	4.079701	0.185989	19.804354	0.067286
5277.181000	4.077796	0.185989	19.804354	0.067286
5280.166000	4.067323	0.185989	19.804354	0.067286
5283.165000	4.100014	0.185989	19.804354	0.067286
5286.216000	4.100648	0.185989	19.804354	0.067286
5289.170000	4.138418	0.185989	19.804354	0.067286
5292.166000	4.127309	0.185989	19.804672	0.067286
5295.220000	4.063197	0.185989	19.804354	0.067286
5298.162000	4.126992	0.185989	19.804672	0.067286
5301.158000	4.089857	0.185672	19.804672	0.067604
5304.178000	4.114296	0.185989	19.804672	0.067286
5307.166000	4.093349	0.185989	19.804354	0.067286
5310.170000	4.091444	0.185989	19.804672	0.067286
5313.205000	4.057166	0.185989	19.804672	0.067286
5316.248000	4.027014	0.185672	19.804354	0.067286
5319.170000	4.099061	0.185989	19.804672	0.067286
5322.203000	4.095570	0.185989	19.804354	0.067286
5325.171000	4.088588	0.185989	19.804672	0.067286
5328.208000	4.025110	0.185989	19.804672	0.067286
5331.162000	4.111440	0.185989	19.804672	0.067286
5334.242000	4.101283	0.185989	19.804672	0.067286
5337.175000	4.025427	0.185989	19.804672	0.067286
5340.163000	4.099061	0.185989	19.804672	0.067286
5343.172000	4.101918	0.185989	19.804672	0.067286
5346.176000	4.101601	0.185989	19.804672	0.067286
5349.172000	4.049549	0.185989	19.804354	0.067286
5352.178000	4.042884	0.185989	19.804354	0.067286
5355.173000	4.112074	0.185989	19.804354	0.067286
5358.178000	4.101283	0.185989	19.804354	0.067286
5361.170000	4.091762	0.185989	19.804354	0.067286
5364.169001	4.079066	0.185672	19.804354	0.067286
5367.169000	4.073988	0.185989	19.804672	0.067286
5370.219000	4.101601	0.185989	19.804672	0.067286
5373.177000	4.052723	0.185989	19.804672	0.067286
5376.257000	4.087636	0.185989	19.804354	0.067286
5379.190000	4.074940	0.185989	19.804354	0.067286
5382.253000	4.062562	0.185989	19.804672	0.067286
5385.194000	4.098744	0.185989	19.804672	0.067286
5388.186000	4.102870	0.185989	19.804672	0.067286
5391.188000	4.101601	0.185989	19.804672	0.067286
5394.184000	4.102235	0.185989	19.804989	0.067286
5397.223000	4.065418	0.185672	19.804672	0.067286
5400.214000	4.136830	0.185989	19.804672	0.067286
5403.177000	4.065736	0.185672	19.804672	0.067286
5406.184000	4.079383	0.185989	19.804672	0.067286
5409.184000	4.100648	0.185989	19.804672	0.067286
5412.168000	4.062879	0.185989	19.804672	0.067286
5415.188001	4.051136	0.185989	19.804672	0.067286
5418.180000	4.122866	0.185672	19.804672	0.067286
5421.231000	4.090175	0.185989	19.804672	0.067286
5424.176000	4.080653	0.185672	19.804672	0.067286
5427.181000	4.103505	0.185989	19.804672	0.067286
5430.181000	4.016858	0.185989	19.804672	0.067286
5433.272000	4.106044	0.185989	19.804672	0.067286
5436.255000	4.101601	0.185989	19.804672	0.067286
5439.240000	4.065418	0.185989	19.804672	0.067286
5442.182000	4.030506	0.185989	19.804672	0.067286
5445.191000	4.096205	0.185672	19.804672	0.067286
5448.179000	4.101601	0.185989	19.804354	0.067286
5451.170000	4.101283	0.185989	19.804672	0.067286
5454.236000	4.019080	0.185672	19.804672	0.067286
5457.212000	4.061292	0.185989	19.804672	0.067286
5460.174000	4.047962	0.185672	19.804354	0.066969
5463.179000	4.048597	0.185989	19.804672	0.067286
5466.194000	4.101283	0.185672	19.804354	0.067286
5469.239999	4.086683	0.185989	19.804672	0.067286
5472.182000	4.101601	0.185989	19.804354	0.067286
5475.175000	4.036853	0.185989	19.804672	0.067286
5478.171000	4.048597	0.185989	19.804672	0.067286
5481.184000	4.112074	0.185989	19.804354	0.067286
5484.172000	4.045423	0.185989	19.804672	0.067286
5487.185000	4.087001	0.185989	19.804672	0.067286
5490.181000	4.096840	0.185672	19.804354	0.067286
5493.242000	4.054945	0.185672	19.804354	0.067286
5496.180000	4.037488	0.185672	19.804354	0.066969
5499.243000	4.081288	0.185989	19.804672	0.067286
5502.181000	4.084144	0.185989	19.804354	0.067286
5505.180000	4.079383	0.185672	19.804672	0.067286
5508.283999	4.073670	0.185672	19.804672	0.067286
5511.172000	4.101601	0.185672	19.804354	0.067286
5514.172000	4.113027	0.185989	19.804672	0.066969
5517.180000	4.061927	0.185672	19.804672	0.067286
5520.172000	4.048914	0.185672	19.804354	0.067286
5523.243000	4.099061	0.185672	19.804354	0.067286
5526.265000	4.139687	0.185672	19.804672	0.067286
5529.236000	4.074940	0.185989	19.804672	0.067286
5532.183000	4.038758	0.185989	19.804672	0.067286
5535.195000	4.087001	0.185672	19.804672	0.067286
5538.220000	4.044788	0.185989	19.804672	0.067286
5541.184000	4.086683	0.185672	19.804672	0.067286
5544.179000	4.113344	0.185672	19.804672	0.067286
5547.175000	4.086049	0.185989	19.804672	0.067286
5550.179000	4.049866	0.185672	19.804672	0.067286
5553.180000	4.091444	0.185989	19.804672	0.067286
5556.220000	4.076844	0.185989	19.804672	0.067286
5559.250999	4.066053	0.185989	19.804672	0.067286
5562.180000	4.098744	0.185989	19.804672	0.067286
5565.176000	4.100966	0.185672	19.804354	0.067286
5568.176000	4.026380	0.185989	19.804672	0.067286
5571.184000	4.097475	0.185989	19.804989	0.067286
5574.180000	4.074940	0.185672	19.804672	0.067286
5577.222000	4.014319	0.185989	19.804672	0.067286
5580.250999	4.099379	0.185672	19.804672	0.067286
5583.189000	4.101601	0.185672	19.804672	0.067286
5586.188000	4.087636	0.185989	19.804672	0.067286
5589.180000	4.100966	0.185672	19.804672	0.067286
5592.184000	4.079383	0.185989	19.804672	0.067286
5595.190000	4.079383	0.185989	19.804989	0.067286
5598.189000	4.074623	0.185672	19.804672	0.067286
5601.186000	4.100966	0.185672	19.804672	0.067286
5604.186000	4.059071	0.185989	19.804672	0.067286
5607.247000	4.077796	0.185672	19.804672	0.067286
5610.186000	4.101601	0.185989	19.804672	0.067286
5613.261000	4.100966	0.185989	19.804672	0.067286
5616.194000	4.095888	0.185672	19.804672	0.067286
5619.198000	4.100648	0.185989	19.804672	0.067286
5622.266000	4.016223	0.185672	19.804354	0.067286
5625.190000	4.084779	0.185672	19.804354	0.067286
5628.228000	4.098744	0.185989	19.804354	0.067286
5631.186000	4.063514	0.185672	19.804354	0.067286
5634.186000	4.029236	0.185672	19.804354	0.067286
5637.186000	4.093983	0.185989	19.804354	0.067286
5640.186000	4.124135	0.185672	19.804354	0.067286
5643.186000	4.041614	0.185672	19.804354	0.067286
5646.196000	4.091762	0.185989	19.804354	0.067286
5649.187000	4.135243	0.185672	19.804354	0.067286
5652.191000	4.045423	0.185672	19.804354	0.067286
5655.187000	4.099379	0.185989	19.804354	0.067286
5658.188000	4.103822	0.185989	19.804354	0.067286
5661.200000	4.028284	0.185989	19.804354	0.067286
5664.191000	4.100648	0.185989	19.804354	0.067286
5667.212000	4.047962	0.185672	19.804354	0.067286
5670.195000	4.100966	0.185672	19.804354	0.067286
5673.187000	4.066053	0.185989	19.804354	0.067286
5676.216000	4.107631	0.185672	19.804354	0.067286
5679.216000	4.100648	0.185672	19.804354	0.067286
5682.191999	4.032410	0.185672	19.804354	0.067286
5685.283999	4.091127	0.185672	19.804354	0.066969
5688.187000	4.123183	0.185672	19.804354	0.067286
5691.270000	4.039075	0.185672	19.804037	0.067286
5694.254000	4.113661	0.185989	19.804354	0.067286
5697.183000	4.138418	0.185989	19.804354	0.066969
5700.187000	4.087953	0.185672	19.804354	0.067286
5703.187000	4.101601	0.185672	19.804354	0.067286
5706.187000	4.126040	0.185672	19.804354	0.066969
5709.203000	4.101283	0.185672	19.804354	0.066969
5712.191999	4.100648	0.185672	19.804354	0.067286
5715.188000	4.099061	0.185672	19.804354	0.067286
5718.187000	4.101601	0.185672	19.804354	0.066969
5721.187000	4.102870	0.185672	19.804354	0.066969
5724.254000	4.105092	0.185672	19.804354	0.067286
5727.187000	4.100966	0.185672	19.804354	0.067286
5730.191000	4.103188	0.185672	19.804672	0.066969
5733.188000	4.084779	0.185672	19.804672	0.067286
5736.193000	4.127626	0.185672	19.804354	0.067286
5739.179000	4.135879	0.185672	19.804354	0.066969
5742.235000	4.113027	0.185672	19.804354	0.067286
5745.194000	4.052405	0.185989	19.804354	0.067286
5748.189000	4.061610	0.185672	19.804354	0.067286
5751.241000	4.126040	0.185672	19.804672	0.067286
5754.272999	4.113027	0.185672	19.804672	0.067286
5757.241000	4.025110	0.185672	19.804354	0.067286
5760.198000	4.109853	0.185989	19.804354	0.067286
5763.190000	4.101283	0.185989	19.804354	0.066969
5766.248000	4.013050	0.185672	19.804354	0.067286
5769.195000	4.099061	0.185672	19.804354	0.067286
5772.256000	4.073988	0.185672	19.804354	0.067286
5775.194000	4.091762	0.185672	19.804354	0.066969
5778.190000	4.041932	0.185672	19.804354	0.067286
5781.218999	4.080970	0.185672	19.804354	0.067286
5784.191999	4.091762	0.185989	19.804037	0.067286
5787.184000	4.104140	0.185672	19.804037	0.067286
5790.250000	4.101283	0.185989	19.804354	0.067286
5793.193000	4.069862	0.185989	19.804354	0.066969
5796.192000	4.084779	0.185672	19.804037	0.067286
5799.192000	4.095253	0.185672	19.804354	0.066969
5802.196000	4.048914	0.185672	19.804037	0.067286
5805.189000	4.085414	0.185672	19.804354	0.066969
5808.191999	4.025745	0.185672	19.804354	0.067286
5811.191999	4.100014	0.185672	19.804037	0.067286
5814.285000	4.125722	0.185672	19.804037	0.067286
5817.191999	4.038758	0.185989	19.804037	0.067286
5820.205000	4.101283	0.185672	19.804037	0.067286
5823.194000	4.098744	0.185672	19.804037	0.067286
5826.222000	4.101918	0.185672	19.804354	0.067286
5829.189000	4.125087	0.185672	19.804037	0.066969
5832.189000	4.113344	0.185672	19.804354	0.067286
5835.189000	4.082557	0.185672	19.804354	0.067286
5838.184999	4.095888	0.185672	19.804354	0.066969
5841.193000	4.107948	0.185672	19.804037	0.067286
5844.256000	4.095888	0.185672	19.804354	0.066969
5847.206000	4.101601	0.185672	19.804037	0.067286
5850.185000	4.095253	0.185672	19.804354	0.066969
5853.194000	4.111440	0.185989	19.804037	0.066969
5856.193000	4.063514	0.185672	19.804354	0.067286
5859.194000	4.095570	0.185672	19.804037	0.067286
5862.198000	4.101283	0.185672	19.804037	0.066969
5865.189000	4.042884	0.185672	19.804037	0.066969
5868.201000	4.130800	0.185672	19.804037	0.066969
5871.298000	4.126992	0.185672	19.804354	0.067286
5874.193000	4.101601	0.185672	19.804354	0.067286
5877.193000	4.100966	0.185672	19.804037	0.067286
5880.201000	4.125404	0.185672	19.804037	0.067286
5883.269001	4.041614	0.185672	19.804037	0.067286
5886.194000	4.111757	0.185672	19.804037	0.067286
5889.194000	4.101918	0.185672	19.804037	0.067286
5892.190000	4.025110	0.185672	19.804037	0.066969
5895.190000	4.100966	0.185672	19.804354	0.067286
5898.206000	4.100966	0.185672	19.804037	0.067286
5901.198000	4.036536	0.185672	19.804037	0.067286
5904.191000	4.101283	0.185672	19.804037	0.067286
5907.266000	4.108266	0.185672	19.804037	0.067286
5910.191000	4.100966	0.185672	19.804037	0.066969
5913.187000	4.067640	0.185672	19.804037	0.067286
5916.195000	4.090809	0.185672	19.804037	0.066969
5919.195000	4.115248	0.185672	19.804037	0.066969
5922.262000	4.089540	0.185672	19.804037	0.066969
5925.209000	4.099379	0.185672	19.804037	0.066969
5928.288000	4.120009	0.185672	19.804037	0.067286
5931.201000	4.020667	0.185672	19.803719	0.066969
5934.214000	4.162221	0.185672	19.803719	0.066969
5937.197000	4.087636	0.185672	19.803719	0.066969
5940.209000	4.036853	0.185672	19.803719	0.066969
5943.201000	4.087636	0.185672	19.804037	0.067286
5946.201000	4.101918	0.185672	19.803719	0.066969
5949.239000	4.037171	0.185672	19.803719	0.067286
5952.201000	4.099061	0.185672	19.803719	0.067286
5955.202000	4.101601	0.185672	19.804037	0.067286
5958.199000	4.050501	0.185672	19.803719	0.066969
5961.198000	4.113027	0.185672	19.803719	0.066969
5964.281000	4.061610	0.185672	19.803719	0.066969
5967.206000	4.101601	0.185672	19.804037	0.067286
5970.191000	4.110805	0.185672	19.803719	0.067286
5973.276000	4.104140	0.185672	19.803719	0.066969
5976.199000	4.071131	0.185672	19.803719	0.067286
5979.270000	4.089857	0.185672	19.803719	0.066969
5982.232000	4.116200	0.185672	19.803719	0.066969
5985.242000	4.062879	0.185672	19.803719	0.066969
5988.201000	4.100648	0.185672	19.804037	0.067286
5991.202000	4.101283	0.185672	19.803719	0.066969
5994.224000	4.087953	0.185672	19.803719	0.067286
5997.203000	4.125722	0.185672	19.804037	0.066969
6000.199000	4.099061	0.185672	19.803719	0.067286
6003.195000	4.113027	0.185672	19.804037	0.066969
6006.205000	4.027014	0.185672	19.803719	0.066969
6009.208000	4.112709	0.185672	19.803719	0.067286
6012.205000	4.049232	0.185672	19.804037	0.067286
6015.256000	4.096205	0.185672	19.804037	0.066969
6018.197000	4.101283	0.185672	19.804037	0.067286
6021.245000	4.060023	0.185672	19.804037	0.066969
6024.210999	4.089857	0.185672	19.804037	0.066969
6027.286000	4.100966	0.185672	19.804037	0.066969
6030.282000	4.093349	0.185672	19.804037	0.067286
6033.219000	4.070814	0.185672	19.804037	0.066969
6036.202000	4.106996	0.185672	19.804037	0.066969
6039.206000	4.111122	0.185672	19.804037	0.067286
6042.272999	4.111122	0.185672	19.803719	0.066969
6045.276999	4.113344	0.185672	19.804037	0.067286
6048.215000	4.063514	0.185672	19.803719	0.067286
6051.210999	4.133657	0.185672	19.803719	0.066969
6054.246000	4.101283	0.185672	19.803719	0.067286
6057.220000	4.040979	0.185672	19.803719	0.067286
6060.203000	4.131435	0.185672	19.803719	0.067286
6063.207000	4.103188	0.185672	19.803719	0.066969
6066.220000	4.107314	0.185672	19.803719	0.066969
6069.208000	4.079383	0.185672	19.803719	0.066969
6072.283000	4.036853	0.185672	19.804037	0.066969
6075.272000	4.091444	0.185672	19.803719	0.066969
6078.210000	4.083509	0.185672	19.803719	0.066969
6081.206000	4.045740	0.185672	19.803719	0.067286
6084.214000	4.100648	0.185672	19.803719	0.066969
6087.278000	4.071766	0.185672	19.803719	0.066969
6090.305000	4.100014	0.185672	19.803719	0.066969
6093.217999	4.112074	0.185672	19.803719	0.066969
6096.219000	4.096840	0.185672	19.803719	0.066969
6099.279000	4.103505	0.185672	19.804037	0.067286
6102.210999	4.123183	0.185672	19.804037	0.066969
6105.227000	4.093983	0.185672	19.803719	0.067286
6108.211000	4.088905	0.185672	19.804037	0.066969
6111.236001	4.065736	0.185672	19.803719	0.066969
6114.215000	4.098744	0.185672	19.803719	0.066969
6117.227000	4.100014	0.185672	19.803719	0.066969
6120.218999	4.101918	0.185672	19.804037	0.066969
6123.287000	4.071766	0.185672	19.804037	0.067286
6126.207000	4.102235	0.185672	19.803719	0.066969
6129.216000	4.126357	0.185672	19.803719	0.067286
6132.216000	4.138418	0.185672	19.803719	0.066969
6135.237000	4.087636	0.185672	19.803719	0.067286
6138.216000	4.023523	0.185672	19.803719	0.066969
6141.220000	4.100014	0.185672	19.804037	0.066969
6144.211999	4.101283	0.185672	19.804037	0.066969
6147.220000	4.066688	0.185672	19.804037	0.066969
6150.212000	4.064466	0.185672	19.803719	0.066969
6153.224000	4.073036	0.185672	19.803719	0.066969
6156.217000	4.091127	0.185672	19.803719	0.066969
6159.217000	4.053675	0.185672	19.803719	0.066969
6162.213000	4.096840	0.185672	19.803719	0.066969
6165.217000	4.087953	0.185672	19.803085	0.066969
6168.210001	4.089857	0.185672	19.803719	0.066969
6171.210000	4.100966	0.185354	19.803085	0.067286
6174.217999	4.099696	0.185672	19.803719	0.066969
6177.314000	4.101601	0.185672	19.804037	0.066969
6180.265000	4.049232	0.185672	19.803719	0.066969
6183.214000	4.098744	0.185672	19.803719	0.066969
6186.218000	4.113027	0.185672	19.803719	0.066969
6189.214000	4.099696	0.185672	19.803719	0.066969
6192.218000	4.124135	0.185672	19.803719	0.066969
6195.220000	4.126357	0.185672	19.803085	0.066969
6198.298999	4.135879	0.185672	19.803719	0.066969
6201.260000	4.103188	0.185672	19.803085	0.066969
6204.314000	4.138418	0.185672	19.803719	0.066969
6207.223000	4.100648	0.185672	19.803719	0.066969
6210.222000	4.108901	0.185672	19.803719	0.066969
6213.284000	4.138100	0.185672	19.803719	0.066969
6216.223000	4.087953	0.185672	19.803719	0.066969
6219.223000	4.107948	0.185672	19.803085	0.066969
6222.229000	4.126040	0.185672	19.803719	0.066969
6225.221000	4.125087	0.185672	19.803085	0.067286
6228.224999	4.123500	0.185672	19.803719	0.066969
6231.221000	4.074623	0.185672	19.803085	0.066969
6234.217000	4.062562	0.185672	19.803085	0.066969
6237.301000	4.100014	0.185672	19.803085	0.066969
6240.323000	4.088588	0.185672	19.803085	0.066969
6243.217000	4.112074	0.185672	19.803719	0.066969
6246.221001	4.098744	0.185672	19.803085	0.066969
6249.217000	4.100966	0.185672	19.803719	0.066969
6252.237000	4.126040	0.185672	19.803719	0.066969
6255.224999	4.093031	0.185672	19.803085	0.066969
6258.300000	4.103822	0.185672	19.803719	0.066969
6261.217000	4.093666	0.185672	19.804037	0.066969
6264.230000	4.079383	0.185672	19.803719	0.066969
6267.226000	4.100966	0.185672	19.803719	0.066969
6270.275000	4.100966	0.185672	19.803719	0.066969
6273.270999	4.106996	0.185672	19.803719	0.066969
6276.232000	4.139052	0.185672	19.803719	0.066969
6279.219000	4.115248	0.185672	19.803719	0.066969
6282.232000	4.088588	0.185672	19.803719	0.066969
6285.236000	4.124135	0.185672	19.803719	0.066969
6288.266000	4.101283	0.185672	19.803085	0.066969
6291.228000	4.053040	0.185672	19.803085	0.066969
6294.311000	4.136196	0.185672	19.803085	0.066969
6297.248000	4.099379	0.185354	19.803085	0.066969
6300.333000	4.101283	0.185672	19.803085	0.067286
6303.224000	4.133974	0.185672	19.803085	0.066969
6306.228000	4.100648	0.185672	19.803085	0.066969
6309.270000	4.127626	0.185672	19.803085	0.066969
6312.224999	4.053358	0.185672	19.803085	0.066969
6315.229000	4.100648	0.185989	19.803085	0.066969
6318.259000	4.092079	0.185672	19.803085	0.066969
6321.221000	4.085731	0.185672	19.803085	0.066969
6324.237000	4.030506	0.185672	19.803719	0.066969
6327.237000	4.099379	0.185672	19.803719	0.067286
6330.221000	4.065101	0.185672	19.803085	0.066969
6333.309000	4.096205	0.185672	19.803085	0.066969
6336.243000	4.102870	0.185672	19.803719	0.066969
6339.228000	4.065736	0.185672	19.803719	0.066969
6342.240000	4.110170	0.185672	19.803719	0.066969
6345.307000	4.100014	0.185672	19.803719	0.066969
6348.286000	4.077796	0.185672	19.803719	0.066969
6351.236000	4.071449	0.185672	19.803719	0.066969
6354.232000	4.097475	0.185672	19.803085	0.066969
6357.237000	4.062879	0.185672	19.803085	0.067286
6360.266000	4.100648	0.185672	19.803085	0.066969
6363.233000	4.087636	0.185672	19.803085	0.066969
6366.254000	4.100648	0.185672	19.803719	0.066969
6369.224000	4.113661	0.185672	19.803085	0.066969
6372.235000	4.101601	0.185672	19.803719	0.066969
6375.281000	4.111440	0.185672	19.803719	0.066969
6378.234000	4.100648	0.185672	19.803719	0.066969
6381.225999	4.036536	0.185672	19.803085	0.066969
6384.239000	4.057801	0.185672	19.803085	0.066969
6387.238000	4.104140	0.185672	19.803085	0.066969
6390.280000	4.098109	0.185672	19.803719	0.066969
6393.280000	4.105727	0.185672	19.803719	0.066969
6396.226000	4.121596	0.185672	19.803719	0.066969
6399.297000	4.118104	0.185672	19.803085	0.066969
6402.231000	4.141274	0.185672	19.803085	0.066969
6405.247000	4.087001	0.185672	19.803085	0.066969
6408.227000	4.023523	0.185672	19.803719	0.066969
6411.334000	4.101283	0.185672	19.803085	0.066969
6414.235000	4.035901	0.185672	19.803719	0.066969
6417.235000	4.100014	0.185672	19.803719	0.066969
6420.307000	4.125722	0.185672	19.803085	0.066969
6423.238000	4.061927	0.185672	19.803085	0.066969
6426.291000	4.035901	0.185672	19.803719	0.066969
6429.232999	4.097792	0.185672	19.803719	0.066969
6432.235000	4.100648	0.185672	19.803719	0.066969
6435.238000	4.060975	0.185672	19.803719	0.066969
6438.339000	4.079701	0.185672	19.803719	0.066969
6441.252000	4.075257	0.185672	19.803085	0.066969
6444.245000	4.069544	0.185672	19.803085	0.066969
6447.241000	4.091127	0.185672	19.803085	0.066969
6450.240000	4.037806	0.185672	19.803085	0.066969
6453.232000	4.097792	0.185672	19.803085	0.066969
6456.241000	4.095253	0.185672	19.803085	0.066969
6459.243000	4.058753	0.185672	19.803719	0.066969
6462.248000	4.125404	0.185672	19.803085	0.066969
6465.344000	4.024793	0.185672	19.803085	0.066969
6468.249000	4.096840	0.185672	19.803085	0.066969
6471.274000	4.111757	0.185672	19.803085	0.066969
6474.246000	4.026380	0.185672	19.803085	0.066969
6477.343000	4.098109	0.185672	19.803085	0.066969
6480.244000	4.125087	0.185354	19.803085	0.066969
6483.243999	4.025745	0.185672	19.803085	0.066969
6486.248000	4.099696	0.185672	19.803085	0.066969
6489.240000	4.085096	0.185672	19.803085	0.066969
6492.248000	4.068592	0.185672	19.803085	0.066969
6495.240000	4.100648	0.185672	19.803085	0.066969
6498.307000	4.064784	0.185672	19.803085	0.066969
6501.248000	4.058436	0.185672	19.803085	0.066969
6504.293000	4.053040	0.185672	19.802767	0.066969
6507.243999	4.060975	0.185672	19.803085	0.066969
6510.253000	4.100648	0.185354	19.803085	0.066969
6513.239999	4.050501	0.185672	19.803085	0.066969
6516.257000	4.101283	0.185672	19.803085	0.066969
6519.248000	4.087953	0.185354	19.802767	0.066969
6522.249000	4.062879	0.185672	19.802767	0.066969
6525.249000	4.072083	0.185354	19.802767	0.066969
6528.253000	4.048914	0.185672	19.803085	0.066969
6531.244000	4.096840	0.185672	19.803085	0.066969
6534.239999	4.100014	0.185354	19.803085	0.066969
6537.265000	4.028284	0.185354	19.803085	0.066969
6540.243999	4.080653	0.185354	19.803085	0.066969
6543.243999	4.053358	0.185672	19.802767	0.066969
6546.339000	4.104774	0.185354	19.803085	0.066969
6549.253000	4.086683	0.185672	19.803085	0.066969
6552.240000	4.100014	0.185672	19.803085	0.066969
6555.256000	4.109218	0.185672	19.803085	0.066969
6558.332000	4.053992	0.185354	19.803085	0.066969
6561.302000	4.041614	0.185672	19.803085	0.066969
6564.264000	4.075257	0.185672	19.803085	0.066969
6567.245000	4.087001	0.185354	19.803719	0.066969
6570.252000	4.111757	0.185672	19.803085	0.066969
6573.244000	4.040345	0.185672	19.803085	0.066969
6576.252000	4.095570	0.185672	19.803085	0.066969
6579.248000	4.076527	0.185672	19.803085	0.066969
6582.327000	4.028284	0.185672	19.803085	0.066969
6585.256000	4.091127	0.185672	19.803085	0.066969
6588.315000	4.084144	0.185672	19.803085	0.066969
6591.253000	4.095570	0.185672	19.803085	0.066969
6594.252000	4.074940	0.185672	19.803085	0.066969
6597.243999	4.031140	0.185672	19.803085	0.066969
6600.240000	4.080653	0.185672	19.803085	0.066969
6603.248000	4.077479	0.185672	19.803085	0.066969
6606.248000	4.006701	0.185672	19.803085	0.066969
6609.256000	4.100966	0.185354	19.803085	0.066969
6612.253000	4.135243	0.185672	19.803085	0.066969
6615.243999	4.061292	0.185672	19.803085	0.066969
6618.260000	3.986071	0.185672	19.803085	0.066969
6621.249000	4.060975	0.185354	19.803719	0.066969
6624.289000	4.087001	0.185672	19.803085	0.066969
6627.299000	4.097792	0.185354	19.803085	0.066969
6630.253000	4.100966	0.185354	19.803085	0.066969
6633.253000	4.059071	0.185354	19.803719	0.066969
6636.244000	4.101283	0.185672	19.803085	0.066969
6639.315000	4.100966	0.185672	19.803085	0.066969
6642.281000	4.104140	0.185672	19.803085	0.066969
6645.249000	4.044471	0.185672	19.803085	0.066969
6648.248000	4.099061	0.185672	19.803085	0.066969
6651.254000	4.101283	0.185672	19.803085	0.066969
6654.254000	4.023206	0.185672	19.803085	0.066969
6657.255000	4.111440	0.185672	19.803719	0.067286
6660.243001	4.112709	0.185672	19.803085	0.066969
6663.255000	4.060658	0.185354	19.803085	0.066969
6666.263000	4.136830	0.185354	19.803085	0.066969
6669.255000	4.100648	0.185672	19.803719	0.066969
6672.247000	4.087636	0.185672	19.803085	0.066969
6675.243000	4.123817	0.185672	19.803085	0.066969
6678.257000	4.077796	0.185672	19.802767	0.066969
6681.248000	4.096205	0.185672	19.803085	0.066969
6684.257000	4.121279	0.185672	19.802767	0.066969
6687.327000	4.017810	0.185354	19.803085	0.066969
6690.251999	4.071131	0.185672	19.803085	0.066969
6693.284999	4.065736	0.185354	19.803085	0.066969
6696.348000	4.117153	0.185672	19.803085	0.066969
6699.256000	4.103188	0.185354	19.803085	0.066969
6702.273000	4.100014	0.185672	19.803085	0.066969
6705.261000	4.110805	0.185672	19.802767	0.066969
6708.249000	4.060023	0.185354	19.803085	0.066969
6711.254000	4.086049	0.185354	19.803085	0.066969
6714.253000	4.137465	0.185354	19.803085	0.066969
6717.254000	4.048914	0.185672	19.803085	0.066969
6720.249000	4.099061	0.185672	19.803085	0.066969
6723.249000	4.060975	0.185354	19.803085	0.066969
6726.258000	4.028284	0.185672	19.803085	0.066969
6729.268000	4.070497	0.185354	19.803719	0.066969
6732.298000	4.066688	0.185354	19.803085	0.066969
6735.251000	4.011145	0.185672	19.803085	0.066969
6738.255000	4.047962	0.185672	19.803085	0.066969
6741.276000	4.035584	0.185672	19.803085	0.066969
6744.260000	4.071766	0.185354	19.803085	0.066969
6747.260000	4.050501	0.185672	19.803085	0.066969
6750.257000	4.065101	0.185672	19.803085	0.066969
6753.258000	4.072083	0.185354	19.803085	0.066969
6756.249000	4.022254	0.185354	19.803719	0.066969
6759.290000	4.058753	0.185354	19.803085	0.066969
6762.274000	4.012414	0.185354	19.803085	0.066969
6765.358000	4.058436	0.185672	19.803085	0.066969
6768.283000	4.035584	0.185354	19.803085	0.066969
6771.258000	4.010510	0.185672	19.803085	0.066969
6774.250999	4.058436	0.185354	19.803085	0.066969
6777.288000	4.023840	0.185354	19.803085	0.066969
6780.260000	4.051136	0.185672	19.802767	0.066969
6783.260000	4.052405	0.185672	19.803085	0.066969
6786.360000	4.026697	0.185672	19.803085	0.066969
6789.264000	4.013684	0.185672	19.803085	0.066969
6792.268000	4.016858	0.185672	19.802767	0.066969
6795.260000	4.040345	0.185354	19.802767	0.066969
6798.314000	4.068592	0.185672	19.803085	0.066969
6801.260000	4.012414	0.185354	19.803085	0.066969
6804.282000	4.077479	0.185354	19.803085	0.066969
6807.265000	4.099379	0.185354	19.803085	0.066969
6810.275000	4.086683	0.185354	19.803085	0.066969
6813.264000	4.013050	0.185354	19.803085	0.066969
6816.333000	4.099061	0.185354	19.802767	0.066969
6819.258999	4.061292	0.185354	19.803085	0.066969
6822.255000	4.047645	0.185354	19.803085	0.066969
6825.275000	4.061927	0.185354	19.803085	0.066969
6828.259000	4.061292	0.185354	19.803085	0.066969
6831.255000	4.075575	0.185354	19.803085	0.066969
6834.260000	4.060658	0.185354	19.803719	0.066969
6837.268000	4.100966	0.185354	19.803085	0.066969
6840.310000	4.051771	0.185672	19.803719	0.066969
6843.260000	4.056531	0.185672	19.803085	0.066969
6846.264000	4.072718	0.185354	19.803085	0.066969
6849.313000	4.060975	0.185672	19.803085	0.066969
6852.340000	4.066053	0.185354	19.803085	0.066969
6855.256000	4.067005	0.185672	19.803085	0.066969
6858.309999	4.099379	0.185354	19.803085	0.066969
6861.261000	4.100966	0.185354	19.803085	0.066969
6864.292000	4.026697	0.185354	19.803085	0.066969
6867.266000	4.120961	0.185672	19.803085	0.066969
6870.265999	4.072083	0.185672	19.802767	0.066969
6873.275000	4.026380	0.185672	19.803085	0.066969
6876.265999	4.098744	0.185354	19.803085	0.066969
6879.271000	4.101601	0.185354	19.803085	0.066969
6882.270000	4.065418	0.185354	19.802767	0.066969
6885.291000	4.050501	0.185354	19.803085	0.066969
6888.262000	4.068592	0.185354	19.802767	0.066969
6891.305000	4.060023	0.185672	19.802767	0.066969
6894.292000	4.054627	0.185354	19.802767	0.066969
6897.288000	4.051771	0.185672	19.803085	0.066969
6900.272000	4.063831	0.185354	19.803085	0.066969
6903.331000	4.108266	0.185354	19.802767	0.066969
6906.263000	4.097157	0.185354	19.802767	0.066651
6909.259000	4.078114	0.185672	19.802767	0.066969
6912.263000	4.100966	0.185354	19.802767	0.066651
6915.268000	4.065418	0.185354	19.802767	0.066969
6918.355000	4.100966	0.185672	19.802767	0.066969
6921.259000	4.117470	0.185354	19.802767	0.066969
6924.267000	4.111440	0.185354	19.802767	0.066969
6927.268000	4.045105	0.185354	19.802767	0.066969
6930.264000	4.088588	0.185672	19.802450	0.066969
6933.288000	4.104774	0.185672	19.802450	0.066969
6936.340000	4.111122	0.185672	19.802450	0.066969
6939.273000	4.113979	0.185354	19.802450	0.066969
6942.268000	4.111757	0.185354	19.802767	0.066969
6945.319000	4.135879	0.185672	19.802767	0.066969
6948.284999	4.048597	0.185354	19.802767	0.066969
6951.269000	4.073670	0.185354	19.802767	0.066969
6954.264000	4.099379	0.185354	19.802767	0.066651
6957.269000	4.101283	0.185354	19.802767	0.066969
6960.330000	4.087001	0.185672	19.802450	0.066969
6963.273000	4.100966	0.185354	19.802767	0.066969
6966.260000	4.032410	0.185354	19.802767	0.066969
6969.268000	4.095570	0.185354	19.802767	0.066969
6972.264000	4.083192	0.185672	19.802767	0.066969
6975.268000	4.042566	0.185672	19.802767	0.066969
6978.272999	4.065736	0.185354	19.802767	0.066969
6981.269000	4.093666	0.185354	19.802767	0.066969
6984.264000	4.102870	0.185354	19.802767	0.066969
6987.268000	4.063514	0.185354	19.802767	0.066969
6990.272000	4.087001	0.185354	19.802767	0.066969
6993.369000	4.101601	0.185354	19.803085	0.066651
6996.269001	4.073670	0.185354	19.802767	0.066969
6999.273000	4.035901	0.185354	19.802767	0.066969
7002.276999	4.111440	0.185354	19.803085	0.066969
7005.280000	4.112709	0.185354	19.803085	0.066969
7008.269000	4.101283	0.185354	19.802767	0.066969
7011.264000	4.025110	0.185672	19.803085	0.066969
7014.273000	4.100014	0.185672	19.802767	0.066969
7017.265000	4.117787	0.185672	19.802767	0.066651
7020.274000	4.118740	0.185672	19.802767	0.066969
7023.275000	4.128896	0.185354	19.802767	0.066651
7026.270999	4.079701	0.185354	19.802767	0.066969
7029.350000	4.090809	0.185672	19.802767	0.066969
7032.272000	4.101283	0.185354	19.802767	0.066969
7035.272000	4.115248	0.185354	19.802767	0.066651
7038.272000	4.049549	0.185354	19.802767	0.066969
7041.352000	4.080018	0.185354	19.802450	0.066969
7044.274000	4.101601	0.185672	19.802767	0.066969
7047.281000	4.100966	0.185354	19.802767	0.066969
7050.269001	4.113344	0.185354	19.802767	0.066969
7053.269000	4.100966	0.185354	19.802767	0.066969
7056.315000	4.137148	0.185672	19.802767	0.066969
7059.274000	4.097475	0.185354	19.802767	0.066969
7062.273000	4.101918	0.185354	19.802767	0.066969
7065.270000	4.026697	0.185354	19.802767	0.066651
7068.277000	4.097475	0.185354	19.802767	0.066651
7071.281000	4.090175	0.185354	19.802767	0.066651
7074.264000	4.016541	0.185672	19.802767	0.066969
7077.344000	4.049232	0.185354	19.802767	0.066651
7080.277999	4.077479	0.185354	19.802767	0.066969
7083.278000	4.100648	0.185354	19.803085	0.066969
7086.273000	4.053358	0.185354	19.802767	0.066969
7089.273000	4.119692	0.185354	19.802767	0.066651
7092.285000	4.086049	0.185354	19.802767	0.066969
7095.269001	4.120961	0.185672	19.802767	0.066969
7098.286000	4.075257	0.185672	19.802767	0.066969
7101.291000	4.121596	0.185354	19.803085	0.066969
7104.272999	4.112074	0.185354	19.803085	0.066651
7107.343999	4.100966	0.185354	19.802767	0.066651
7110.285000	4.135561	0.185354	19.803085	0.066969
7113.269000	4.100014	0.185354	19.803085	0.066969
7116.276999	4.088905	0.185672	19.802767	0.066969
7119.274000	4.061292	0.185672	19.802767	0.066969
7122.279000	4.096840	0.185354	19.802767	0.066969
7125.275000	4.065736	0.185354	19.802767	0.066969
7128.274000	4.137783	0.185354	19.802767	0.066969
7131.288000	4.094618	0.185672	19.802767	0.066969
7134.283000	4.075257	0.185354	19.803085	0.066651
7137.267000	4.110170	0.185672	19.802767	0.066651
7140.276000	4.126357	0.185354	19.802767	0.066969
7143.276000	4.065101	0.185354	19.802767	0.066651
7146.272000	4.101918	0.185354	19.802767	0.066969
7149.276000	4.100014	0.185354	19.802767	0.066969
7152.347000	4.119692	0.185354	19.802767	0.066651
7155.281000	4.097157	0.185354	19.802767	0.066969
7158.276000	4.127309	0.185354	19.802450	0.066651
7161.276999	4.065418	0.185354	19.803085	0.066969
7164.278000	4.129530	0.185354	19.802767	0.066969
7167.271000	4.103822	0.185354	19.803085	0.066969
7170.275000	4.138418	0.185354	19.802767	0.066969
7173.296000	4.068910	0.185354	19.802767	0.066969
7176.284000	4.087636	0.185354	19.802767	0.066969
7179.276000	4.112709	0.185354	19.803085	0.066969
7182.283999	4.138418	0.185354	19.802767	0.066969
7185.286000	4.023523	0.185354	19.803085	0.066969
7188.286000	4.125087	0.185354	19.802767	0.066651
7191.282000	4.113027	0.185354	19.802767	0.066969
7194.278000	4.073670	0.185354	19.802450	0.066969
7197.290000	4.011462	0.185354	19.802767	0.066651
7200.354000	4.137148	0.185354	19.802767	0.066651
7203.280000	4.058753	0.185354	19.802767	0.066969
7206.287001	4.117787	0.185672	19.802767	0.066969
7209.291000	4.113027	0.185354	19.802767	0.066969
7212.301000	4.100966	0.185354	19.802767	0.066969
7215.280000	4.038758	0.185354	19.802767	0.066651
7218.346000	4.091762	0.185354	19.802767	0.066969
7221.288000	4.103505	0.185354	19.802767	0.066651
7224.280000	4.043836	0.185354	19.802767	0.066969
7227.284000	4.080970	0.185354	19.802450	0.066969
7230.280000	4.101283	0.185354	19.802450	0.066969
7233.284000	4.125087	0.185354	19.802767	0.066651
7236.280000	4.099696	0.185354	19.802450	0.066651
7239.276000	4.126992	0.185354	19.802450	0.066969
7242.286000	4.100966	0.185354	19.802450	0.066969
7245.290000	4.136830	0.185354	19.802767	0.066651
7248.286000	4.101283	0.185354	19.802767	0.066969
7251.282000	4.049549	0.185354	19.802767	0.066651
7254.363000	4.099379	0.185354	19.802767	0.066651
7257.375000	4.046375	0.185354	19.802767	0.066651
7260.302999	4.100014	0.185354	19.802767	0.066651
7263.286000	4.100648	0.185672	19.802450	0.066969
7266.282000	4.100648	0.185354	19.802767	0.066969
7269.287000	4.090809	0.185354	19.802767	0.066969
7272.291000	4.100648	0.185354	19.802450	0.066969
7275.287000	4.105727	0.185354	19.802767	0.066651
7278.279000	4.123817	0.185354	19.802767	0.066651
7281.288000	4.112074	0.185354	19.802767	0.066651
7284.299000	4.135561	0.185354	19.802450	0.066969
7287.307000	4.100014	0.185354	19.802767	0.066651
7290.320000	4.101283	0.185354	19.802767	0.066651
7293.308000	4.112074	0.185354	19.802767	0.066651
7296.337000	4.136196	0.185354	19.802767	0.066969
7299.299000	4.099379	0.185354	19.802767	0.066969
7302.338000	4.100966	0.185354	19.802450	0.066969
7305.284000	4.051453	0.185354	19.802450	0.066651
7308.294000	4.126357	0.185354	19.802767	0.066651
7311.289000	4.115566	0.185354	19.802767	0.066969
7314.307000	4.075257	0.185354	19.802450	0.066969
7317.298000	4.109853	0.185354	19.802767	0.066651
7320.380000	4.073670	0.185354	19.802450	0.066651
7323.354000	4.137465	0.185354	19.802767	0.066651
7326.296000	4.102235	0.185354	19.802767	0.066969
7329.296000	4.089857	0.185354	19.802767	0.066969
7332.293000	4.067323	0.185354	19.802767	0.066651
7335.335001	4.101601	0.185354	19.802767	0.066969
7338.298000	4.031458	0.185354	19.802450	0.066969
7341.341000	4.094618	0.185354	19.802450	0.066969
7344.294000	4.137148	0.185354	19.802767	0.066651
7347.290000	4.101918	0.185354	19.802767	0.066969
7350.302000	4.075575	0.185354	19.802767	0.066969
7353.290000	4.067957	0.185354	19.802767	0.066651
7356.294000	4.127944	0.185354	19.802450	0.066651
7359.300000	4.099061	0.185354	19.802450	0.066969
7362.307000	4.088588	0.185354	19.802767	0.066969
7365.294999	4.048914	0.185354	19.802767	0.066969
7368.286000	4.124770	0.185354	19.802767	0.066651
7371.320000	4.099379	0.185354	19.802767	0.066969
7374.291000	4.126040	0.185354	19.802450	0.066969
7377.384000	4.101283	0.185354	19.802450	0.066969
7380.292000	4.060975	0.185354	19.802767	0.066969
7383.296000	4.100966	0.185354	19.802767	0.066969
7386.288000	4.111122	0.185354	19.802450	0.066969
7389.376000	4.077162	0.185354	19.802767	0.066969
7392.291999	4.117470	0.185354	19.802767	0.066969
7395.291999	4.110805	0.185354	19.802450	0.066969
7398.296000	4.105092	0.185354	19.802450	0.066651
7401.296000	4.080018	0.185354	19.802767	0.066651
7404.309000	4.131435	0.185354	19.802767	0.066969
7407.356000	4.117153	0.185354	19.802767	0.066969
7410.296000	4.138100	0.185354	19.802450	0.066969
7413.313000	4.109218	0.185354	19.802767	0.066651
7416.350999	4.151431	0.185672	19.802767	0.066969
7419.300000	4.139052	0.185354	19.802767	0.066651
7422.296000	4.100648	0.185354	19.802767	0.066651
7425.300000	4.112074	0.185354	19.802767	0.066651
7428.292000	4.138418	0.185354	19.802450	0.066969
7431.304000	4.137148	0.185354	19.802767	0.066651
7434.292000	4.138418	0.185354	19.802450	0.066969
7437.350000	4.100966	0.185354	19.802450	0.066651
7440.287001	4.126040	0.185354	19.802450	0.066969
7443.346000	4.087636	0.185354	19.802132	0.066969
7446.296000	4.120961	0.185354	19.802767	0.066969
7449.296000	4.154287	0.185354	19.802450	0.066969
7452.398000	4.077479	0.185354	19.802767	0.066651
7455.306000	4.125404	0.185354	19.802450	0.066969
7458.293000	4.112709	0.185354	19.802450	0.066969
7461.332000	4.080653	0.185354	19.802450	0.066651
7464.320000	4.092079	0.185354	19.802450	0.066651
7467.291000	4.126040	0.185354	19.802450	0.066969
7470.291000	4.100966	0.185354	19.802450	0.066651
7473.366000	4.062562	0.185354	19.802450	0.066651
7476.291000	4.111757	0.185354	19.802450	0.066651
7479.324000	4.125722	0.185354	19.802450	0.066651
7482.291000	4.112709	0.185354	19.802450	0.066651
7485.325000	4.064466	0.185354	19.802450	0.066969
7488.366000	4.137148	0.185354	19.802450	0.066651
7491.296000	4.112074	0.185354	19.802450	0.066651
7494.308000	4.100966	0.185354	19.802450	0.066969
7497.297000	4.092079	0.185354	19.802450	0.066651
7500.293000	4.114296	0.185354	19.802450	0.066651
7503.319000	4.117153	0.185354	19.802450	0.066969
7506.293000	4.100966	0.185354	19.802450	0.066969
7509.310000	4.100966	0.185354	19.802450	0.066651
7512.314000	4.132070	0.185354	19.802450	0.066969
7515.365000	4.106996	0.185354	19.802450	0.066969
7518.294000	4.094935	0.185354	19.802450	0.066651
7521.294000	4.101601	0.185354	19.802450	0.066651
7524.302000	4.028919	0.185354	19.802450	0.066969
7527.307000	4.091762	0.185354	19.802450	0.066651
7530.315000	4.101601	0.185354	19.802450	0.066651
7533.366000	4.086683	0.185354	19.802767	0.066651
7536.303000	4.060975	0.185354	19.802450	0.066969
7539.301000	4.096205	0.185354	19.802450	0.066651
7542.392000	4.127944	0.185354	19.802450	0.066651
7545.303999	4.087953	0.185354	19.802450	0.066651
7548.296000	4.090175	0.185354	19.802450	0.066969
7551.300000	4.084779	0.185354	19.802450	0.066651
7554.366000	4.107631	0.185354	19.802450	0.066651
7557.357000	4.069862	0.185354	19.802450	0.066651
7560.310000	4.099379	0.185354	19.802450	0.066651
7563.305000	4.113027	0.185354	19.802450	0.066651
7566.296000	4.064784	0.185354	19.802450	0.066969
7569.305000	4.099379	0.185354	19.802132	0.066651
7572.305000	4.134926	0.185354	19.802132	0.066969
7575.321000	4.131117	0.185354	19.802132	0.066651
7578.313000	4.139687	0.185354	19.802132	0.066969
7581.403000	4.067005	0.185354	19.802132	0.066969
7584.306000	4.123183	0.185354	19.802450	0.066969
7587.319000	4.096840	0.185354	19.802450	0.066651
7590.310000	4.137783	0.185354	19.802132	0.066651
7593.306000	4.088588	0.185354	19.802132	0.066651
7596.310000	4.128261	0.185354	19.802450	0.066969
7599.314000	4.125722	0.185354	19.802132	0.066651
7602.298000	4.100966	0.185354	19.802132	0.066969
7605.307000	4.124770	0.185354	19.802450	0.066651
7608.365000	4.100648	0.185354	19.802132	0.066651
7611.299000	4.101283	0.185354	19.802132	0.066651
7614.308000	4.137465	0.185354	19.802132	0.066651
7617.335001	4.125404	0.185354	19.802132	0.066651
7620.308000	4.126040	0.185354	19.802132	0.066651
7623.320999	4.099696	0.185354	19.802450	0.066969
7626.350000	4.092714	0.185354	19.802450	0.066651
7629.359000	4.138100	0.185354	19.802132	0.066651
7632.309999	4.103505	0.185354	19.802132	0.066651
7635.311000	4.107314	0.185354	19.802132	0.066651
7638.377000	4.103188	0.185354	19.802132	0.066651
7641.302001	4.112709	0.185354	19.802132	0.066651
7644.328001	4.111440	0.185354	19.802132	0.066651
7647.312000	4.175869	0.185354	19.802450	0.066969
7650.357000	4.081288	0.185354	19.802132	0.066651
7653.317000	4.174600	0.185354	19.802132	0.066969
7656.318000	4.164126	0.185354	19.802132	0.066651
7659.314000	4.074940	0.185354	19.802132	0.066651
7662.319000	4.149526	0.185354	19.802450	0.066651
7665.323000	4.175869	0.185354	19.802132	0.066651
7668.315000	4.075257	0.185354	19.802132	0.066651
7671.315000	4.162539	0.185354	19.802450	0.066651
7674.347000	4.135879	0.185354	19.802450	0.066651
7677.353999	4.176187	0.185354	19.802450	0.066969
7680.324999	4.119374	0.185354	19.802132	0.066969
7683.320000	4.144130	0.185354	19.802450	0.066651
7686.316000	4.110805	0.185354	19.802450	0.066651
7689.375000	4.142861	0.185354	19.802450	0.066651
7692.324000	4.147622	0.185354	19.802450	0.066651
7695.317000	4.116200	0.185354	19.802132	0.066651
7698.316000	4.104140	0.185354	19.802450	0.066651
7701.378000	4.139687	0.185354	19.802450	0.066651
7704.317000	4.176187	0.185354	19.802450	0.066651
7707.342000	4.138100	0.185354	19.802132	0.066651
7710.321000	4.137465	0.185354	19.802450	0.066651
7713.330000	4.112074	0.185354	19.802450	0.066969
7716.319000	4.126357	0.185354	19.802450	0.066651
7719.323000	4.087953	0.185354	19.802450	0.066651
7722.382000	4.113661	0.185354	19.802450	0.066651
7725.315000	4.160952	0.185354	19.802132	0.066969
7728.376999	4.151748	0.185354	19.802132	0.066651
7731.399000	4.138100	0.185354	19.802450	0.066651
7734.324000	4.130800	0.185354	19.802450	0.066651
7737.326000	4.125404	0.185354	19.802450	0.066651
7740.392000	4.108266	0.185354	19.802450	0.066651
7743.419000	4.123183	0.185354	19.802450	0.066969
7746.398000	4.144130	0.185354	19.802450	0.066651
7749.336000	4.137783	0.185354	19.802132	0.066651
7752.324000	4.120327	0.185354	19.802450	0.066651
7755.324999	4.129530	0.185354	19.802767	0.066651
7758.328000	4.089540	0.185354	19.802450	0.066651
7761.328000	4.103505	0.185354	19.802450	0.066651
7764.332000	4.135879	0.185354	19.802450	0.066969
7767.391000	4.137465	0.185354	19.802450	0.066651
7770.328001	4.125722	0.185354	19.802132	0.066651
7773.324000	4.161587	0.185354	19.802450	0.066651
7776.324000	4.135561	0.185354	19.802450	0.066651
7779.329000	4.114296	0.185354	19.802767	0.066651
7782.316000	4.137465	0.185354	19.802450	0.066651
7785.321000	4.135561	0.185354	19.802450	0.066651
7788.399000	4.120327	0.185354	19.802450	0.066651
7791.421000	4.167300	0.185354	19.802450	0.066651
7794.328000	4.117470	0.185354	19.802450	0.066651
7797.428000	4.128896	0.185354	19.802450	0.066651
7800.350000	4.099061	0.185354	19.802132	0.066651
7803.321000	4.132387	0.185354	19.802450	0.066651
7806.317000	4.132070	0.185354	19.802132	0.066651
7809.330000	4.131752	0.185354	19.802132	0.066651
7812.318000	4.153969	0.185354	19.802450	0.066969
7815.326000	4.103822	0.185354	19.802450	0.066651
7818.371000	4.134292	0.185354	19.802132	0.066651
7821.354000	4.131117	0.185354	19.802450	0.066969
7824.326000	4.140322	0.185354	19.802450	0.066651
7827.410000	4.055262	0.185354	19.802450	0.066651
7830.327000	4.100966	0.185354	19.802450	0.066651
7833.375000	4.127309	0.185354	19.802450	0.066651
7836.327000	4.160000	0.185354	19.802132	0.066651
7839.323000	4.073353	0.185354	19.802132	0.066651
7842.327000	4.137465	0.185354	19.802132	0.066969
7845.332000	4.138100	0.185354	19.802450	0.066651
7848.324000	4.138100	0.185354	19.802132	0.066651
7851.328001	4.087953	0.185354	19.802132	0.066651
7854.331000	4.175234	0.185354	19.802132	0.066651
7857.331000	4.098744	0.185354	19.802132	0.066651
7860.335999	4.060975	0.185354	19.802132	0.066651
7863.348000	4.061292	0.185354	19.802450	0.066651
7866.328000	4.104774	0.185354	19.802450	0.066969
7869.332000	4.073670	0.185354	19.802450	0.066651
7872.343000	4.098109	0.185354	19.802132	0.066651
7875.374000	4.098109	0.185354	19.802450	0.066651
7878.320000	4.117470	0.185354	19.802450	0.066651
7881.361001	4.123817	0.185354	19.802132	0.066969
7884.343999	4.128896	0.185354	19.802450	0.066651
7887.327000	4.119374	0.185354	19.802132	0.066651
7890.361000	4.112074	0.185354	19.802450	0.066651
7893.327000	4.136830	0.185354	19.802132	0.066651
7896.323000	4.162539	0.185354	19.802450	0.066969
7899.332000	4.126040	0.185354	19.802132	0.066651
7902.357000	4.063514	0.185354	19.802450	0.066651
7905.399000	4.136830	0.185354	19.802450	0.066969
7908.327000	4.151431	0.185354	19.802450	0.066651
7911.361000	4.151748	0.185354	19.802450	0.066651
7914.320000	4.089540	0.185354	19.802450	0.066651
7917.416000	4.145082	0.185354	19.802132	0.066651
7920.328000	4.129530	0.185354	19.802132	0.066651
7923.320000	4.121279	0.185354	19.802132	0.066651
7926.336000	4.146035	0.185354	19.802132	0.066651
7929.328001	4.138100	0.185354	19.802132	0.066651
7932.345000	4.125722	0.185354	19.802450	0.066651
7935.324000	4.120327	0.185354	19.802132	0.066651
7938.335999	4.092079	0.185354	19.802132	0.066651
7941.328000	4.170474	0.185354	19.802450	0.066651
7944.321000	4.178091	0.185354	19.802450	0.066651
7947.337000	4.153018	0.185354	19.802450	0.066651
7950.329000	4.128261	0.185354	19.802450	0.066651
7953.334000	4.173965	0.185354	19.802450	0.066651
7956.396000	4.175552	0.185354	19.802132	0.066651
7959.367000	4.140005	0.185354	19.802132	0.066651
7962.329999	4.091127	0.185037	19.802450	0.066651
7965.335000	4.161904	0.185354	19.802450	0.066969
7968.334000	4.175552	0.185354	19.802450	0.066969
7971.326000	4.119692	0.185354	19.802450	0.066651
7974.326000	4.110805	0.185354	19.802132	0.066651
7977.332000	4.156508	0.185354	19.802132	0.066651
7980.324000	4.132387	0.185354	19.802132	0.066651
7983.341000	4.143178	0.185354	19.802450	0.066651
7986.323000	4.121913	0.185354	19.802132	0.066651
7989.426000	4.175552	0.185354	19.802132	0.066651
7992.326000	4.126040	0.185354	19.802450	0.066651
7995.326000	4.167300	0.185354	19.802450	0.066651
7998.327000	4.163491	0.185354	19.802450	0.066651
8001.351000	4.112709	0.185354	19.802450	0.066651
8004.326000	4.077479	0.185354	19.802450	0.066969
8007.335001	4.151113	0.185354	19.802132	0.066651
8010.335001	4.133657	0.185354	19.802132	0.066651
8013.346999	4.151748	0.185354	19.802450	0.066969
8016.335000	4.067005	0.185354	19.802450	0.066651
8019.398000	4.150161	0.185354	19.802132	0.066651
8022.373000	4.121913	0.185354	19.802132	0.066651
8025.337000	4.080018	0.185354	19.802450	0.066651
8028.338000	4.105092	0.185354	19.802450	0.066651
8031.333000	4.160000	0.185354	19.802450	0.066651
8034.330000	4.172378	0.185354	19.802450	0.066651
8037.387001	4.113661	0.185354	19.802450	0.066651
8040.334000	4.061927	0.185354	19.802450	0.066651
8043.334000	4.161904	0.185354	19.802450	0.066651
8046.367000	4.137783	0.185354	19.802450	0.066651
8049.338000	4.116835	0.185354	19.802450	0.066651
8052.338000	4.145400	0.185354	19.802132	0.066651
8055.400000	4.149526	0.185354	19.802132	0.066651
8058.346000	4.104774	0.185354	19.802132	0.066651
8061.335001	4.124135	0.185354	19.802132	0.066651
8064.339001	4.140005	0.185354	19.802132	0.066651
8067.338000	4.132387	0.185354	19.801815	0.066651
8070.350000	4.077796	0.185354	19.801815	0.066651
8073.339000	4.114931	0.185354	19.802132	0.066651
8076.338000	4.125722	0.185354	19.802132	0.066651
8079.338000	4.100648	0.185354	19.802132	0.066651
8082.329000	4.137783	0.185354	19.802132	0.066651
8085.363000	4.149526	0.185354	19.802132	0.066651
8088.330000	4.113344	0.185354	19.802450	0.066651
8091.342999	4.100966	0.185354	19.802132	0.066651
8094.335999	4.100966	0.185354	19.802132	0.066651
8097.340000	4.062879	0.185354	19.802450	0.066651
8100.380000	4.149526	0.185354	19.802450	0.066651
8103.342000	4.055579	0.185037	19.802450	0.066651
8106.435000	4.128896	0.185354	19.802450	0.066651
8109.343000	4.131435	0.185354	19.802450	0.066651
8112.436000	4.135561	0.185354	19.802450	0.066651
8115.344000	4.082557	0.185354	19.802450	0.066651
8118.348000	4.126357	0.185354	19.802450	0.066651
8121.335000	4.117153	0.185354	19.802450	0.066651
8124.373000	4.171426	0.185354	19.802132	0.066651
8127.340000	4.121596	0.185354	19.802450	0.066651
8130.344000	4.136830	0.185354	19.802450	0.066651
8133.336000	4.127626	0.185354	19.802450	0.066651
8136.336000	4.102870	0.185354	19.802450	0.066651
8139.349000	4.137465	0.185354	19.802450	0.066651
8142.336000	4.134926	0.185354	19.802450	0.066651
8145.440000	4.163491	0.185354	19.802450	0.066651
8148.395000	4.101601	0.185354	19.802450	0.066651
8151.340000	4.087953	0.185354	19.802132	0.066651
8154.401999	4.109218	0.185354	19.802450	0.066651
8157.344000	4.118740	0.185354	19.802132	0.066651
8160.344000	4.101283	0.185354	19.802132	0.066651
8163.340000	4.112074	0.185037	19.802450	0.066651
8166.410000	4.081605	0.185354	19.802132	0.066651
8169.343999	4.084779	0.185354	19.802450	0.066651
8172.335999	4.126357	0.185354	19.802132	0.066651
8175.335999	4.153335	0.185354	19.802450	0.066651
8178.349000	4.152065	0.185354	19.802450	0.066651
8181.335999	4.085731	0.185354	19.802450	0.066651
8184.344000	4.169839	0.185354	19.802450	0.066651
8187.336000	4.153335	0.185354	19.802450	0.066651
8190.403000	4.198086	0.185354	19.802132	0.066651
8193.344000	4.114296	0.185354	19.802132	0.066651
8196.335000	4.093031	0.185354	19.802450	0.066651
8199.335999	4.154922	0.185354	19.802132	0.066651
8202.352000	4.153969	0.185354	19.802450	0.066651
8205.345000	4.173013	0.185354	19.802132	0.066651
8208.347000	4.133657	0.185354	19.802450	0.066651
8211.346000	4.097475	0.185037	19.802450	0.066651
8214.338000	4.127309	0.185354	19.802132	0.066651
8217.372000	4.136196	0.185354	19.802450	0.066651
8220.359000	4.153335	0.185037	19.802450	0.066651
8223.350999	4.153335	0.185354	19.802450	0.066651
8226.339000	4.130800	0.185354	19.802132	0.066651
8229.423999	4.137783	0.185354	19.802450	0.066651
8232.359000	4.125087	0.185354	19.802450	0.066651
8235.339000	4.130166	0.185354	19.802450	0.066651
8238.369000	4.090809	0.185354	19.802767	0.066651
8241.347000	4.077162	0.185037	19.802767	0.066651
8244.347000	4.129530	0.185354	19.802767	0.066651
8247.359000	4.136830	0.185354	19.802767	0.066651
8250.347000	4.104774	0.185354	19.802767	0.066651
8253.352000	4.071449	0.185354	19.802767	0.066651
8256.342999	4.127309	0.185354	19.802450	0.066651
8259.360000	4.143496	0.185354	19.802767	0.066651
8262.339000	4.137465	0.185354	19.802450	0.066651
8265.352000	4.162221	0.185354	19.802450	0.066651
8268.343000	4.062879	0.185037	19.802767	0.066651
8271.353000	4.162221	0.185354	19.802767	0.066651
8274.348000	4.137783	0.185037	19.802450	0.066651
8277.339000	4.138100	0.185354	19.802450	0.066651
8280.406000	4.087001	0.185354	19.802450	0.066651
8283.362000	4.137783	0.185354	19.802450	0.066651
8286.344000	4.175869	0.185354	19.802767	0.066651
8289.340000	4.149209	0.185354	19.802767	0.066651
8292.436000	4.142226	0.185354	19.802767	0.066651
8295.388000	4.154287	0.185354	19.802450	0.066651
8298.349000	4.128896	0.185354	19.802450	0.066651
8301.346000	4.161269	0.185354	19.802767	0.066651
8304.387000	4.097157	0.185354	19.802450	0.066651
8307.341000	4.168252	0.185354	19.802450	0.066651
8310.345000	4.140005	0.185354	19.802450	0.066651
8313.389000	4.151431	0.185354	19.802767	0.066651
8316.343000	4.126040	0.185354	19.802767	0.066651
8319.384000	4.161904	0.185037	19.802450	0.066651
8322.390000	4.149209	0.185354	19.802767	0.066651
8325.366000	4.137783	0.185354	19.802450	0.066651
8328.348000	4.138100	0.185354	19.802767	0.066651
8331.364000	4.100648	0.185354	19.802450	0.066651
8334.368999	4.075575	0.185354	19.802450	0.066651
8337.361000	4.148256	0.185354	19.802450	0.066651
8340.356000	4.080653	0.185354	19.802767	0.066651
8343.356000	4.110805	0.185354	19.802767	0.066651
8346.357000	4.149526	0.185354	19.802767	0.066651
8349.429000	4.141592	0.185037	19.802767	0.066651
8352.357999	4.133022	0.185037	19.802767	0.066651
8355.387000	4.175869	0.185354	19.802767	0.066651
8358.346000	4.113979	0.185354	19.802767	0.066651
8361.358000	4.109218	0.185354	19.802767	0.066651
8364.354000	4.112074	0.185354	19.802767	0.066651
8367.346000	4.159682	0.185354	19.803085	0.066651
8370.354000	4.151748	0.185354	19.802767	0.066651
8373.360000	4.065101	0.185354	19.802767	0.066651
8376.350999	4.173013	0.185354	19.802450	0.066651
8379.350999	4.139369	0.185354	19.802450	0.066651
8382.356000	4.137148	0.185354	19.802450	0.066651
8385.398000	4.136830	0.185354	19.802450	0.066651
8388.437000	4.113661	0.185354	19.802450	0.066651
8391.411000	4.102870	0.185037	19.802767	0.066651
8394.412000	4.105409	0.185354	19.802450	0.066651
8397.357000	4.106044	0.185354	19.802450	0.066651
8400.370000	4.109853	0.185354	19.802132	0.066651
8403.353999	4.093031	0.185354	19.802450	0.066651
8406.350000	4.136830	0.185354	19.802132	0.066651
8409.467000	4.103188	0.185354	19.802132	0.066651
8412.359000	4.137465	0.185354	19.802132	0.066651
8415.410000	4.129530	0.185037	19.802450	0.066651
8418.461000	4.112074	0.185354	19.802450	0.066651
8421.432000	4.137783	0.185354	19.802450	0.066651
8424.381000	4.113979	0.185354	19.802450	0.066651
8427.403000	4.109853	0.185037	19.802450	0.066651
8430.427000	4.080970	0.185354	19.802450	0.066651
8433.366000	4.125404	0.185354	19.802450	0.066651
8436.366000	4.087953	0.185354	19.802132	0.066651
8439.354000	4.117153	0.185354	19.802132	0.066651
8442.364000	4.137465	0.185354	19.802132	0.066651
8445.363000	4.136196	0.185354	19.802132	0.066651
8448.468000	4.135879	0.185354	19.802132	0.066651
8451.383000	4.173647	0.185354	19.802132	0.066651
8454.376000	4.162539	0.185354	19.802450	0.066651
8457.362999	4.175552	0.185354	19.802450	0.066334
8460.359000	4.137148	0.185354	19.802132	0.066651
8463.354000	4.161587	0.185354	19.802450	0.066651
8466.368000	4.060975	0.185354	19.802450	0.066651
8469.363000	4.174600	0.185354	19.802450	0.066651
8472.418000	4.139052	0.185354	19.802450	0.066651
8475.359000	4.137783	0.185354	19.802450	0.066651
8478.359000	4.094618	0.185037	19.802450	0.066651
8481.464000	4.160000	0.185354	19.802450	0.066651
8484.368000	4.169839	0.185354	19.802450	0.066651
8487.355000	4.131752	0.185354	19.802132	0.066651
8490.368000	4.151748	0.185354	19.802450	0.066651
8493.363000	4.088588	0.185354	19.802450	0.066651
8496.360000	4.133022	0.185037	19.802450	0.066651
8499.367000	4.137148	0.185037	19.802450	0.066651
8502.369000	4.125087	0.185354	19.802450	0.066651
8505.406000	4.111122	0.185354	19.802132	0.066651
8508.382000	4.061292	0.185354	19.802132	0.066651
8511.364000	4.135561	0.185354	19.802450	0.066651
8514.439000	4.101601	0.185354	19.802132	0.066651
8517.373000	4.112709	0.185037	19.802450	0.066651
8520.364000	4.135879	0.185354	19.802450	0.066651
8523.360000	4.063197	0.185354	19.802132	0.066651
8526.431000	4.122231	0.185354	19.802450	0.066651
8529.357000	4.131117	0.185037	19.802450	0.066651
8532.365000	4.148256	0.185354	19.802132	0.066651
8535.390000	4.094618	0.185354	19.802132	0.066651
8538.445000	4.114296	0.185354	19.802132	0.066651
8541.415000	4.111757	0.185354	19.802132	0.066651
8544.432000	4.100014	0.185354	19.802450	0.066651
8547.361000	4.111122	0.185354	19.802132	0.066651
8550.361001	4.113661	0.185354	19.802450	0.066651
8553.449000	4.136196	0.185354	19.802132	0.066651
8556.420001	4.151113	0.185037	19.802132	0.066651
8559.366000	4.074940	0.185037	19.802132	0.066651
8562.366000	4.135561	0.185354	19.802132	0.066651
8565.467000	4.127944	0.185037	19.802132	0.066651
8568.378000	4.136196	0.185354	19.802132	0.066651
8571.366000	4.138418	0.185354	19.802132	0.066651
8574.362000	4.075892	0.185354	19.802450	0.066651
8577.441000	4.122231	0.185037	19.802132	0.066651
8580.362000	4.116200	0.185354	19.802450	0.066651
8583.366000	4.137465	0.185354	19.802450	0.066651
8586.416000	4.105092	0.185037	19.802132	0.066651
8589.366000	4.091444	0.185354	19.802450	0.066651
8592.374000	4.077796	0.185037	19.802132	0.066651
8595.382000	4.088588	0.185037	19.802450	0.066651
8598.366000	4.081288	0.185354	19.802450	0.066651
8601.366000	4.059388	0.185037	19.802450	0.066651
8604.370000	4.125722	0.185354	19.802450	0.066651
8607.366000	4.133022	0.185037	19.802450	0.066651
8610.366000	4.138418	0.185354	19.802450	0.066651
8613.369999	4.090175	0.185354	19.802450	0.066651
8616.423999	4.131752	0.185354	19.802132	0.066651
8619.421000	4.138100	0.185354	19.802450	0.066651
8622.411000	4.114296	0.185354	19.802450	0.066651
8625.371000	4.134292	0.185037	19.802450	0.066651
8628.363000	4.125722	0.185037	19.802132	0.066651
8631.390000	4.064784	0.185037	19.802450	0.066651
8634.369000	4.137148	0.185354	19.802450	0.066651
8637.376000	4.133974	0.185037	19.802132	0.066651
8640.364000	4.104774	0.185037	19.802450	0.066651
8643.372000	4.151113	0.185354	19.802450	0.066651
8646.368000	4.137465	0.185354	19.802132	0.066651
8649.368000	4.138418	0.185354	19.802132	0.066651
8652.414000	4.174600	0.185354	19.802132	0.066651
8655.360000	4.126357	0.185354	19.802450	0.066651
8658.368001	4.141909	0.185037	19.802450	0.066651
8661.369000	4.073670	0.185037	19.802450	0.066651
8664.364000	4.125722	0.185354	19.802132	0.066651
8667.360000	4.115566	0.185354	19.802450	0.066651
8670.372000	4.167617	0.185037	19.802132	0.066651
8673.427000	4.165078	0.185037	19.802132	0.066651
8676.364000	4.093983	0.185354	19.802450	0.066651
8679.378000	4.137465	0.185354	19.802450	0.066651
8682.369000	4.141592	0.185354	19.802450	0.066651
8685.365001	4.175234	0.185354	19.802450	0.066651
8688.361000	4.176187	0.185354	19.802132	0.066651
8691.372000	4.073988	0.185037	19.802132	0.066651
8694.366000	4.112709	0.185354	19.802450	0.066651
8697.374000	4.136830	0.185354	19.802450	0.066651
8700.368000	4.139052	0.185354	19.802450	0.066651
8703.372000	4.061292	0.185037	19.802132	0.066651
8706.363000	4.135879	0.185037	19.802450	0.066651
8709.372000	4.137465	0.185037	19.802450	0.066334
8712.364000	4.171426	0.185037	19.802450	0.066651
8715.364000	4.081605	0.185354	19.802132	0.066651
8718.368000	4.155874	0.185354	19.802450	0.066651
8721.370000	4.145718	0.185354	19.802450	0.066651
8724.381000	4.103188	0.185354	19.802450	0.066651
8727.368999	4.155556	0.185037	19.802132	0.066651
8730.394000	4.157144	0.185037	19.802132	0.066651
8733.397000	4.073988	0.185354	19.802450	0.066651
8736.373000	4.142861	0.185037	19.802450	0.066651
8739.373000	4.100648	0.185354	19.802450	0.066651
8742.376999	4.151113	0.185354	19.802450	0.066651
8745.411000	4.138100	0.185037	19.802132	0.066651
8748.398000	4.139052	0.185037	19.802132	0.066651
8751.415000	4.100966	0.185354	19.802450	0.066651
8754.368999	4.173965	0.185037	19.802450	0.066651
8757.378000	4.137148	0.185037	19.802450	0.066651
8760.377000	4.101918	0.185037	19.802450	0.066651
8763.373000	4.121596	0.185354	19.802450	0.066651
8766.379999	4.112709	0.185354	19.802450	0.066651
8769.435999	4.133022	0.185037	19.802132	0.066651
8772.373000	4.153969	0.185037	19.802132	0.066651
8775.373000	4.142861	0.185037	19.802132	0.066651
8778.449000	4.123500	0.185037	19.802132	0.066651
8781.374000	4.130800	0.185354	19.802132	0.066651
8784.370000	4.141909	0.185354	19.802132	0.066334
8787.382000	4.132387	0.185354	19.802132	0.066651
8790.371000	4.163808	0.185354	19.802132	0.066651
8793.366000	4.076844	0.185037	19.802132	0.066334
8796.378000	4.133974	0.185354	19.802132	0.066651
8799.457000	4.148256	0.185354	19.802132	0.066651
8802.441000	4.067323	0.185037	19.802450	0.066651
8805.441000	4.173330	0.185354	19.802450	0.066651
8808.463000	4.162221	0.185037	19.802132	0.066651
8811.370000	4.101918	0.185354	19.802132	0.066651
8814.374000	4.161587	0.185354	19.802132	0.066651
8817.382000	4.116200	0.185354	19.802132	0.066651
8820.379000	4.107631	0.185354	19.802132	0.066651
8823.387000	4.090175	0.185037	19.802132	0.066651
8826.429000	4.141274	0.185037	19.802132	0.066651
8829.391000	4.126992	0.185354	19.802450	0.066651
8832.375000	4.114931	0.185354	19.802450	0.066651
8835.388000	4.079066	0.185354	19.802450	0.066651
8838.366000	4.137465	0.185354	19.802450	0.066651
8841.368001	4.133657	0.185037	19.802450	0.066651
8844.381000	4.130800	0.185037	19.802450	0.066651
8847.380000	4.152382	0.185354	19.802450	0.066651
8850.388000	4.078749	0.185354	19.802767	0.066651
8853.377000	4.137783	0.185037	19.802450	0.066651
8856.376000	4.141592	0.185354	19.802450	0.066651
8859.405000	4.137783	0.185354	19.802450	0.066651
8862.444000	4.104774	0.185037	19.802450	0.066651
8865.376000	4.164126	0.185354	19.802450	0.066651
8868.376000	4.135561	0.185037	19.802450	0.066651
8871.421999	4.151113	0.185037	19.802132	0.066651
8874.376000	4.150161	0.185037	19.802450	0.066651
8877.446000	4.113027	0.185037	19.802450	0.066651
8880.380000	4.137465	0.185037	19.802132	0.066651
8883.390000	4.163174	0.185037	19.802132	0.066651
8886.390000	4.087001	0.185037	19.802450	0.066651
8889.428000	4.136830	0.185037	19.802132	0.066651
8892.377000	4.111440	0.185354	19.802132	0.066651
8895.372999	4.138100	0.185354	19.802450	0.066651
8898.368999	4.134292	0.185037	19.802132	0.066651
8901.376999	4.129530	0.185037	19.802450	0.066651
8904.373000	4.099061	0.185354	19.802132	0.066651
8907.373000	4.163491	0.185354	19.802132	0.066334
8910.390000	4.155874	0.185037	19.802450	0.066651
8913.470000	4.106678	0.185354	19.802132	0.066651
8916.378000	4.123183	0.185037	19.802132	0.066651
8919.403000	4.140956	0.185354	19.802132	0.066651
8922.420000	4.137783	0.185354	19.802132	0.066651
8925.369999	4.087953	0.185037	19.802132	0.066651
8928.378000	4.087001	0.185037	19.802132	0.066651
8931.370000	4.124135	0.185354	19.802132	0.066651
8934.437000	4.161587	0.185354	19.802132	0.066651
8937.390000	4.125087	0.185354	19.802132	0.066651
8940.374000	4.113979	0.185354	19.802132	0.066651
8943.403000	4.100014	0.185037	19.802132	0.066651
8946.378000	4.173965	0.185037	19.802132	0.066651
8949.374000	4.166030	0.185037	19.802132	0.066651
8952.378000	4.134926	0.185354	19.802132	0.066651
8955.383000	4.032727	0.185037	19.802132	0.066651
8958.379000	4.127944	0.185354	19.802450	0.066651
8961.386000	4.134292	0.185037	19.802450	0.066651
8964.378000	4.112074	0.185354	19.802450	0.066651
8967.370000	4.084779	0.185037	19.802450	0.066651
8970.391000	4.129848	0.185354	19.802132	0.066651
8973.381999	4.124135	0.185354	19.802450	0.066651
8976.412000	4.175234	0.185354	19.802132	0.066651
8979.379000	4.087953	0.185037	19.802132	0.066651
8982.420000	4.174600	0.185037	19.802132	0.066651
8985.370000	4.126040	0.185354	19.802450	0.066651
8988.378000	4.127309	0.185037	19.802132	0.066651
8991.382000	4.075575	0.185037	19.802132	0.066651
8994.399000	4.125087	0.185354	19.802132	0.066651
8997.370000	4.134292	0.185037	19.802132	0.066334
9000.368999	4.139687	0.185037	19.801815	0.066651
9003.383000	4.175869	0.185037	19.802132	0.066651
9006.375000	4.123817	0.185037	19.802132	0.066651
9009.378000	4.151431	0.185354	19.802132	0.066651
9012.379000	4.137783	0.185037	19.802132	0.066651
9015.374000	4.156508	0.185037	19.802132	0.066651
9018.382000	4.123500	0.185354	19.802132	0.066651
9021.432000	4.116200	0.185037	19.802132	0.066651
9024.382000	4.145082	0.185037	19.802132	0.066651
9027.374000	4.137783	0.185037	19.802132	0.066651
9030.378000	4.153018	0.185037	19.802132	0.066651
9033.382000	4.101918	0.185354	19.802132	0.066651
9036.370000	4.147939	0.185037	19.802132	0.066651
9039.383000	4.064784	0.185354	19.802132	0.066651
9042.395000	4.159682	0.185037	19.801815	0.066651
9045.383000	4.176187	0.185354	19.802132	0.066651
9048.375000	4.113344	0.185354	19.801815	0.066651
9051.379000	4.153969	0.185037	19.802132	0.066651
9054.371000	4.175552	0.185037	19.801815	0.066651
9057.377000	4.137465	0.185037	19.802132	0.066651
9060.375000	4.123817	0.185354	19.801815	0.066651
9063.375000	4.159682	0.185037	19.802132	0.066651
9066.392000	4.141274	0.185354	19.802132	0.066651
9069.398000	4.096840	0.185354	19.801815	0.066651
9072.399000	4.164443	0.185037	19.802132	0.066651
9075.390000	4.138100	0.185354	19.801815	0.066651
9078.414000	4.093031	0.185037	19.801815	0.066651
9081.395000	4.114296	0.185037	19.802132	0.066651
9084.427999	4.133339	0.185037	19.802132	0.066651
9087.469000	4.105727	0.185037	19.801815	0.066651
9090.452000	4.148891	0.185037	19.802132	0.066651
9093.399000	4.141909	0.185037	19.802132	0.066651
9096.402000	4.079701	0.185037	19.801815	0.066651
9099.475000	4.153969	0.185037	19.801815	0.066651
9102.394001	4.118104	0.185037	19.801815	0.066651
9105.378000	4.160000	0.185037	19.801815	0.066651
9108.378000	4.126357	0.185037	19.801815	0.066651
9111.395000	4.151431	0.185037	19.802132	0.066651
9114.373000	4.138100	0.185037	19.802132	0.066651
9117.374000	4.060975	0.185037	19.802132	0.066651
9120.436000	4.151431	0.185037	19.802132	0.066651
9123.384000	4.073988	0.185037	19.802132	0.066651
9126.384000	4.149843	0.185037	19.802132	0.066651
9129.401000	4.125722	0.185037	19.802132	0.066651
9132.430000	4.161904	0.185037	19.802132	0.066651
9135.380000	4.185391	0.185037	19.802132	0.066651
9138.384000	4.141274	0.185354	19.802132	0.066334
9141.388000	4.105727	0.185037	19.801815	0.066651
9144.385000	4.154922	0.185354	19.802132	0.066651
9147.380000	4.165395	0.185354	19.802132	0.066651
9150.392000	4.096205	0.185037	19.802132	0.066651
9153.440000	4.140956	0.185354	19.802132	0.066651
9156.388000	4.142861	0.185037	19.802132	0.066651
9159.380000	4.137783	0.185354	19.802132	0.066651
9162.383999	4.139052	0.185037	19.802132	0.066651
9165.376000	4.088905	0.185354	19.802132	0.066651
9168.388000	4.151748	0.185354	19.802132	0.066651
9171.376000	4.075257	0.185354	19.802132	0.066651
9174.482000	4.173647	0.185037	19.802132	0.066651
9177.377000	4.138418	0.185037	19.802132	0.066651
9180.386000	4.175234	0.185354	19.802132	0.066651
9183.386000	4.126040	0.185354	19.802132	0.066651
9186.399000	4.137465	0.185354	19.802132	0.066651
9189.390000	4.160952	0.185354	19.802132	0.066334
9192.390000	4.141274	0.185037	19.802450	0.066651
9195.386000	4.143813	0.185037	19.802132	0.066334
9198.386000	4.144448	0.185037	19.802132	0.066651
9201.386000	4.132387	0.185037	19.802132	0.066651
9204.388000	4.150161	0.185037	19.801815	0.066651
9207.388000	4.148256	0.185037	19.802132	0.066651
9210.383999	4.127309	0.185037	19.802132	0.066651
9213.388000	4.136830	0.185037	19.802132	0.066334
9216.414000	4.136830	0.185037	19.801815	0.066651
9219.388000	4.136196	0.185037	19.802132	0.066651
9222.484000	4.088588	0.185354	19.802132	0.066651
9225.388000	4.151113	0.185354	19.802132	0.066334
9228.392000	4.161587	0.185037	19.802450	0.066651
9231.389000	4.100966	0.185037	19.802132	0.066651
9234.463000	4.171108	0.185037	19.802132	0.066651
9237.388000	4.053040	0.185354	19.801815	0.066651
9240.393000	4.135879	0.185037	19.801815	0.066651
9243.455000	4.144130	0.185354	19.801815	0.066334
9246.388000	4.143496	0.185037	19.801815	0.066651
9249.427000	4.091444	0.185037	19.801815	0.066651
9252.389000	4.149526	0.185354	19.801815	0.066651
9255.405000	4.104140	0.185037	19.801815	0.066651
9258.435000	4.098744	0.185354	19.801815	0.066651
9261.382000	4.137465	0.185037	19.801815	0.066651
9264.395000	4.101601	0.185037	19.801815	0.066651
9267.390000	4.138418	0.185037	19.801815	0.066651
9270.395000	4.135879	0.185037	19.801815	0.066651
9273.399000	4.121913	0.185037	19.802132	0.066651
9276.392000	4.103505	0.185037	19.801815	0.066651
9279.384000	4.063197	0.185037	19.801815	0.066651
9282.396000	4.145718	0.185354	19.802132	0.066651
9285.416999	4.139052	0.185037	19.801815	0.066651
9288.460000	4.148256	0.185037	19.801815	0.066651
9291.442999	4.175869	0.185037	19.802132	0.066651
9294.427000	4.121596	0.185037	19.801815	0.066651
9297.389000	4.175234	0.185037	19.802132	0.066651
9300.389000	4.122231	0.185037	19.802132	0.066651
9303.389000	4.115883	0.185037	19.802132	0.066651
9306.418000	4.168252	0.185037	19.802132	0.066651
9309.393000	4.146987	0.185037	19.801815	0.066651
9312.398000	4.197134	0.185037	19.801815	0.066651
9315.414000	4.165395	0.185037	19.802132	0.066334
9318.398000	4.173330	0.185037	19.802132	0.066651
9321.397000	4.094935	0.185037	19.802132	0.066651
9324.393000	4.171743	0.185037	19.801815	0.066651
9327.397000	4.175869	0.185354	19.802132	0.066651
9330.398000	4.094618	0.185037	19.802132	0.066334
9333.391000	4.156191	0.185037	19.802132	0.066651
9336.403000	4.141274	0.185037	19.802132	0.066651
9339.390000	4.137783	0.185037	19.802132	0.066334
9342.394000	4.145400	0.185037	19.802132	0.066334
9345.415000	4.089540	0.185037	19.801815	0.066651
9348.387000	4.163174	0.185037	19.802132	0.066651
9351.391000	4.151113	0.185037	19.802132	0.066651
9354.442000	4.137783	0.185037	19.801815	0.066651
9357.395000	4.137783	0.185037	19.802132	0.066651
9360.411000	4.100014	0.185037	19.802132	0.066651
9363.425000	4.100966	0.185037	19.802132	0.066651
9366.399000	4.136830	0.185037	19.802132	0.066334
9369.438000	4.137148	0.185037	19.801815	0.066651
9372.487000	4.116835	0.185354	19.802132	0.066651
9375.476000	4.149209	0.185037	19.802132	0.066651
9378.396000	4.095888	0.185037	19.802132	0.066651
9381.397000	4.163808	0.185037	19.802132	0.066651
9384.401000	4.163174	0.185354	19.802132	0.066651
9387.396000	4.101918	0.185037	19.802132	0.066334
9390.395999	4.160952	0.185037	19.801815	0.066651
9393.401000	4.155874	0.185037	19.802132	0.066651
9396.396000	4.156191	0.185037	19.802132	0.066651
9399.396000	4.162539	0.185037	19.801815	0.066651
9402.396000	4.100648	0.185037	19.802132	0.066651
9405.412000	4.173647	0.185037	19.802132	0.066651
9408.417000	4.139052	0.185037	19.801815	0.066651
9411.392000	4.088588	0.185037	19.802132	0.066651
9414.388000	4.161269	0.185037	19.802132	0.066651
9417.395999	4.138418	0.185037	19.801815	0.066651
9420.396000	4.125404	0.185037	19.801815	0.066334
9423.388000	4.136196	0.185037	19.801815	0.066651
9426.390000	4.155239	0.185037	19.801815	0.066651
9429.398000	4.173013	0.185037	19.801815	0.066334
9432.398000	4.111122	0.185037	19.801815	0.066651
9435.402000	4.132387	0.185037	19.801815	0.066651
9438.394001	4.162539	0.185037	19.801815	0.066651
9441.464999	4.134292	0.185037	19.802132	0.066651
9444.398000	4.148256	0.185037	19.802132	0.066334
9447.404000	4.185391	0.185037	19.802132	0.066651
9450.391000	4.091444	0.185354	19.802132	0.066334
9453.399000	4.161269	0.185037	19.802132	0.066651
9456.470000	4.138418	0.185037	19.802132	0.066334
9459.470000	4.089222	0.185037	19.802132	0.066651
9462.399000	4.173330	0.185037	19.802132	0.066651
9465.399000	4.174282	0.185037	19.802132	0.066334
9468.411000	4.114296	0.185037	19.802132	0.066651
9471.427999	4.100014	0.185037	19.802132	0.066651
9474.395000	4.172060	0.185037	19.802132	0.066334
9477.404000	4.145718	0.185037	19.801815	0.066651
9480.399000	4.167300	0.185037	19.802132	0.066651
9483.396000	4.104774	0.185354	19.802132	0.066334
9486.400000	4.135561	0.185037	19.801815	0.066651
9489.401000	4.146987	0.185037	19.802132	0.066334
9492.453001	4.114931	0.185037	19.802132	0.066651
9495.399000	4.168252	0.185037	19.802132	0.066651
9498.478000	4.129213	0.185037	19.802132	0.066651
9501.413000	4.147939	0.185037	19.802132	0.066651
9504.404000	4.174282	0.185037	19.802132	0.066651
9507.441000	4.101601	0.185037	19.801815	0.066334
9510.404000	4.171426	0.185354	19.802132	0.066334
9513.485000	4.138100	0.185037	19.802132	0.066651
9516.400000	4.064466	0.185037	19.801815	0.066651
9519.416999	4.170156	0.185037	19.802132	0.066334
9522.412000	4.151431	0.185037	19.801815	0.066651
9525.409999	4.112074	0.185037	19.802132	0.066651
9528.398000	4.133657	0.185037	19.802132	0.066651
9531.406000	4.123183	0.185037	19.801815	0.066651
9534.411000	4.133339	0.185037	19.801815	0.066651
9537.406000	4.133022	0.185037	19.801815	0.066651
9540.402000	4.085096	0.185037	19.801815	0.066651
9543.406000	4.128896	0.185037	19.801815	0.066651
9546.414000	4.104774	0.185037	19.802132	0.066651
9549.401999	4.129213	0.185037	19.801815	0.066651
9552.406000	4.185391	0.185037	19.801815	0.066651
9555.410000	4.142226	0.185037	19.801815	0.066651
9558.397000	4.145400	0.185037	19.801815	0.066651
9561.397000	4.140956	0.185037	19.801815	0.066651
9564.402000	4.136830	0.185037	19.801815	0.066651
9567.406000	4.155556	0.185037	19.801815	0.066334
9570.405999	4.102870	0.185037	19.802132	0.066651
9573.406000	4.101601	0.185037	19.802132	0.066651
9576.465000	4.173647	0.185037	19.801815	0.066334
9579.406000	4.160317	0.185037	19.802132	0.066651
9582.470000	4.106996	0.185037	19.801815	0.066651
9585.452000	4.181900	0.185037	19.802132	0.066334
9588.436000	4.148256	0.185037	19.801815	0.066651
9591.495000	4.103505	0.185037	19.801815	0.066651
9594.412000	4.137783	0.185037	19.801815	0.066651
9597.408000	4.161904	0.185037	19.801815	0.066651
9600.402999	4.137783	0.185037	19.801815	0.066334
9603.407000	4.073670	0.185037	19.801815	0.066651
9606.408000	4.174600	0.185037	19.801815	0.066651
9609.407000	4.175234	0.185037	19.801815	0.066651
9612.429000	4.129213	0.185037	19.801815	0.066651
9615.399000	4.164443	0.185037	19.801815	0.066651
9618.423000	4.170474	0.185037	19.801815	0.066334
9621.408000	4.133974	0.185037	19.801815	0.066334
9624.411000	4.151431	0.185037	19.801815	0.066651
9627.459000	4.100966	0.185037	19.801815	0.066334
9630.410000	4.140322	0.185037	19.801815	0.066651
9633.410000	4.140005	0.185037	19.801815	0.066334
9636.435000	4.137783	0.185037	19.801815	0.066651
9639.422000	4.125722	0.185037	19.801815	0.066651
9642.415000	4.113027	0.185037	19.801815	0.066334
9645.402000	4.162539	0.185037	19.801815	0.066651
9648.405999	4.138418	0.185037	19.802132	0.066651
9651.401000	4.061610	0.185037	19.801815	0.066651
9654.431000	4.161587	0.185037	19.801815	0.066651
9657.427999	4.126040	0.185037	19.802132	0.066334
9660.412000	4.150161	0.185037	19.801815	0.066651
9663.474000	4.114296	0.185037	19.801815	0.066334
9666.412000	4.137783	0.185037	19.801815	0.066334
9669.404000	4.114931	0.185037	19.801815	0.066334
9672.483000	4.156508	0.185037	19.801815	0.066651
9675.409000	4.175869	0.185354	19.802132	0.066334
9678.414000	4.109218	0.185037	19.801815	0.066651
9681.409000	4.153018	0.185037	19.801815	0.066651
9684.409000	4.169521	0.185037	19.801815	0.066334
9687.418000	4.143496	0.185037	19.802132	0.066651
9690.404000	4.160000	0.185037	19.802132	0.066651
9693.413000	4.113661	0.185037	19.802132	0.066651
9696.425000	4.173965	0.185037	19.801815	0.066334
9699.501000	4.175869	0.185037	19.802132	0.066651
9702.518000	4.100648	0.185037	19.801815	0.066651
9705.409000	4.125404	0.185037	19.802132	0.066651
9708.413000	4.175869	0.185037	19.802132	0.066651
9711.413000	4.089222	0.185037	19.802132	0.066651
9714.404000	4.148256	0.185037	19.801815	0.066334
9717.418000	4.155874	0.185037	19.802132	0.066651
9720.409000	4.171743	0.185037	19.801815	0.066334
9723.413000	4.117153	0.185037	19.802132	0.066334
9726.418000	4.144448	0.185037	19.802132	0.066651
9729.425000	4.134926	0.185037	19.802132	0.066334
9732.404000	4.121279	0.185037	19.802132	0.066651
9735.405000	4.139687	0.185037	19.802132	0.066334
9738.414000	4.175552	0.185037	19.802132	0.066651
9741.410000	4.138100	0.185037	19.802132	0.066651
9744.410000	4.127626	0.185037	19.802132	0.066334
9747.414000	4.090175	0.185037	19.802132	0.066651
9750.430000	4.175552	0.185037	19.802132	0.066334
9753.503000	4.138100	0.185037	19.802132	0.066651
9756.416000	4.159682	0.185037	19.802132	0.066651
9759.416000	4.173965	0.185037	19.802132	0.066651
9762.421000	4.101601	0.185037	19.802132	0.066334
9765.509000	4.148256	0.185354	19.802132	0.066334
9768.421000	4.162221	0.185037	19.802132	0.066651
9771.428000	4.163174	0.185037	19.802132	0.066651
9774.420001	4.144130	0.185037	19.802132	0.066334
9777.428000	4.148256	0.185037	19.801815	0.066334
9780.412000	4.127944	0.185037	19.802132	0.066651
9783.429000	4.155874	0.185037	19.801815	0.066651
9786.412000	4.153335	0.185037	19.801815	0.066651
9789.413000	4.167300	0.185037	19.801815	0.066334
9792.418000	4.132070	0.185037	19.801815	0.066651
9795.418000	4.175869	0.185037	19.802132	0.066334
9798.423000	4.102870	0.185354	19.802132	0.066334
9801.430000	4.138418	0.185037	19.801815	0.066651
9804.435000	4.140005	0.185037	19.801815	0.066334
9807.418000	4.104140	0.185037	19.801815	0.066334
9810.418000	4.146035	0.185037	19.801815	0.066651
9813.423000	4.151431	0.185037	19.801815	0.066651
9816.418000	4.077796	0.185037	19.801815	0.066334
9819.418000	4.181265	0.185037	19.802132	0.066651
9822.410000	4.165395	0.185037	19.802132	0.066334
9825.410000	4.131435	0.185037	19.801815	0.066334
9828.419000	4.167617	0.185037	19.801815	0.066651
9831.414999	4.139687	0.185037	19.801815	0.066651
9834.412000	4.118740	0.185037	19.802132	0.066334
9837.478000	4.132387	0.185037	19.801815	0.066334
9840.420000	4.117470	0.185037	19.802132	0.066651
9843.427999	4.175552	0.185037	19.802132	0.066334
9846.525000	4.174282	0.185037	19.802132	0.066334
9849.420001	4.179995	0.185037	19.802132	0.066334
9852.424000	4.156191	0.185037	19.802132	0.066651
9855.424000	4.108266	0.185037	19.801815	0.066651
9858.416000	4.166030	0.185037	19.802132	0.066334
9861.412000	4.175552	0.185037	19.801815	0.066334
9864.462000	4.097475	0.185037	19.801815	0.066651
9867.475000	4.032410	0.185037	19.802132	0.066651
9870.433000	4.113661	0.185037	19.802132	0.066334
9873.512000	4.115566	0.185037	19.802132	0.066651
9876.441000	4.086683	0.185037	19.802132	0.066334
9879.420001	4.150161	0.185037	19.802132	0.066334
9882.431999	4.151748	0.185037	19.802132	0.066651
9885.416000	4.100014	0.185037	19.802132	0.066334
9888.416999	4.174282	0.185037	19.802132	0.066334
9891.430000	4.138100	0.185037	19.802132	0.066334
9894.418000	4.151431	0.185037	19.802132	0.066334
9897.414000	4.187613	0.185037	19.802132	0.066334
9900.515000	4.151748	0.185037	19.802132	0.066334
9903.423000	4.148891	0.185037	19.802132	0.066651
9906.448000	4.133657	0.185037	19.802132	0.066334
9909.480999	4.163491	0.185037	19.802132	0.066334
9912.520000	4.121279	0.185037	19.801815	0.066651
9915.504000	4.105409	0.185037	19.802132	0.066651
9918.457000	4.107631	0.185037	19.802132	0.066334
9921.429000	4.156191	0.185037	19.802132	0.066651
9924.429000	4.084144	0.185037	19.802132	0.066651
9927.416000	4.101918	0.185037	19.801815	0.066651
9930.416000	4.100014	0.185037	19.801815	0.066334
9933.420001	4.173330	0.185037	19.802132	0.066651
9936.425000	4.174600	0.185037	19.802132	0.066334
9939.416000	4.162221	0.185037	19.802132	0.066651
9942.487000	4.160317	0.185037	19.801815	0.066334
9945.449000	4.125404	0.185037	19.802132	0.066651
9948.416000	4.101601	0.185037	19.801815	0.066651
9951.424000	4.173330	0.185037	19.802132	0.066334
9954.449000	4.128896	0.185037	19.801815	0.066651
9957.429000	4.163174	0.185037	19.802132	0.066651
9960.430000	4.137783	0.185037	19.801815	0.066334
9963.416000	4.134926	0.185037	19.802132	0.066334
9966.438000	4.109853	0.185037	19.802132	0.066334
9969.429000	4.155239	0.185037	19.802132	0.066651
9972.426000	4.175552	0.185037	19.802132	0.066334
9975.467000	4.113027	0.185037	19.801815	0.066651
9978.425000	4.123500	0.185037	19.802132	0.066651
9981.421000	4.101918	0.185354	19.802132	0.066334
9984.425000	4.173647	0.185037	19.802132	0.066651
9987.426000	4.113344	0.185037	19.802132	0.066651
9990.530000	4.150161	0.185037	19.802132	0.066651
9993.426000	4.173013	0.185037	19.802132	0.066334
9996.431000	4.137465	0.185037	19.802132	0.066651
9999.418000	4.114296	0.185037	19.802132	0.066651
10002.422000	4.100966	0.185037	19.802132	0.066651
10005.430000	4.173013	0.185037	19.801815	0.066651
10008.467000	4.113027	0.185037	19.802132	0.066334
10011.430000	4.147622	0.185037	19.802132	0.066334
10014.431000	4.133022	0.185037	19.802132	0.066651
10017.426000	4.140005	0.185037	19.802450	0.066651
10020.422000	4.160000	0.185037	19.802132	0.066334
10023.452000	4.126992	0.185037	19.802132	0.066651
10026.426000	4.123183	0.185037	19.802132	0.066651
10029.430000	4.123500	0.185037	19.802132	0.066651
10032.439000	4.157461	0.185037	19.802132	0.066651
10035.439000	4.161904	0.185037	19.802132	0.066651
10038.493000	4.151113	0.185037	19.802132	0.066651
10041.426000	4.102870	0.185037	19.802132	0.066651
10044.497000	4.173965	0.185037	19.802132	0.066334
10047.467000	4.151748	0.185037	19.802132	0.066334
10050.422000	4.103505	0.185037	19.802132	0.066334
10053.423000	4.148891	0.185037	19.802132	0.066334
10056.481000	4.139052	0.185037	19.802132	0.066334
10059.431000	4.124770	0.185037	19.802132	0.066651
10062.432000	4.145400	0.185037	19.802132	0.066334
10065.432000	4.169204	0.185037	19.802132	0.066334
10068.423000	4.086683	0.185037	19.802132	0.066651
10071.435000	4.117787	0.185037	19.802132	0.066334
10074.519000	4.145718	0.185037	19.802132	0.066651
10077.423000	4.121913	0.185037	19.801815	0.066334
10080.489000	4.130800	0.185037	19.801815	0.066334
10083.532000	4.120009	0.185037	19.802132	0.066334
10086.423000	4.066053	0.185037	19.801815	0.066651
10089.423000	4.091762	0.185037	19.801815	0.066651
10092.435000	4.145400	0.185037	19.801815	0.066334
10095.419000	4.077479	0.185037	19.802132	0.066334
10098.419000	4.167300	0.185037	19.802132	0.066334
10101.439000	4.175869	0.185037	19.802450	0.066651
10104.424000	4.149843	0.185037	19.802132	0.066651
10107.526000	4.175869	0.185037	19.802132	0.066334
10110.430000	4.105727	0.185037	19.802132	0.066334
10113.451000	4.165713	0.185037	19.802132	0.066334
10116.434000	4.117153	0.185037	19.802132	0.066334
10119.446000	4.146987	0.185037	19.802132	0.066334
10122.427000	4.129213	0.185037	19.801815	0.066651
10125.430000	4.171426	0.185037	19.802132	0.066334
10128.472000	4.149209	0.185037	19.802132	0.066334
10131.457000	4.113979	0.185037	19.801815	0.066334
10134.432000	4.171108	0.185037	19.801815	0.066334
10137.481000	4.099696	0.185037	19.802132	0.066334
10140.429000	4.128261	0.185037	19.802132	0.066334
10143.428999	4.160952	0.185037	19.802132	0.066334
10146.425000	4.161904	0.185037	19.802132	0.066334
10149.508999	4.124135	0.185037	19.801815	0.066651
10152.445000	4.131435	0.185037	19.801815	0.066334
10155.433000	4.128896	0.185037	19.801815	0.066334
10158.430000	4.166982	0.185037	19.801815	0.066651
10161.433000	4.175552	0.185037	19.802132	0.066651
10164.425000	4.101918	0.185037	19.802132	0.066651
10167.433000	4.145400	0.185037	19.801815	0.066334
10170.433000	4.095253	0.185037	19.801815	0.066651
10173.458000	4.175234	0.185037	19.801815	0.066651
10176.479000	4.173013	0.185037	19.802132	0.066334
10179.471000	4.101601	0.185037	19.802132	0.066651
10182.512000	4.174282	0.185037	19.801815	0.066651
10185.476000	4.138100	0.185037	19.801815	0.066334
10188.434000	4.174282	0.185037	19.802132	0.066334
10191.446001	4.162539	0.185037	19.801815	0.066334
10194.435000	4.146352	0.185037	19.801815	0.066334
10197.434000	4.149526	0.185037	19.801815	0.066651
10200.449999	4.166348	0.185037	19.801815	0.066651
10203.434000	4.175869	0.185037	19.802132	0.066651
10206.439000	4.109853	0.185037	19.801815	0.066651
10209.431000	4.170474	0.185037	19.801815	0.066334
10212.435000	4.153018	0.185037	19.802132	0.066334
10215.434000	4.137783	0.185037	19.802132	0.066651
10218.481000	4.163174	0.185037	19.802132	0.066334
10221.434000	4.137783	0.185037	19.801815	0.066334
10224.446000	4.151431	0.185037	19.801815	0.066651
10227.430000	4.175869	0.185037	19.801815	0.066651
10230.426000	4.101601	0.185037	19.802132	0.066334
10233.430000	4.174600	0.185037	19.801815	0.066334
10236.479000	4.175552	0.185037	19.801815	0.066651
10239.427001	4.113344	0.185037	19.801815	0.066651
10242.520000	4.112709	0.185037	19.801815	0.066651
10245.435999	4.108266	0.185037	19.801815	0.066651
10248.438000	4.154922	0.185037	19.801815	0.066651
10251.438000	4.162539	0.185037	19.801815	0.066334
10254.442000	4.108901	0.185037	19.801815	0.066334
10257.437000	4.146035	0.185037	19.801815	0.066334
10260.505000	4.116835	0.185037	19.801815	0.066334
10263.438000	4.168252	0.185037	19.801815	0.066334
10266.443000	4.137465	0.185037	19.802132	0.066334
10269.468000	4.127626	0.185037	19.801815	0.066334
10272.431000	4.151748	0.185037	19.801815	0.066334
10275.472000	4.137783	0.185037	19.801815	0.066334
10278.473000	4.136196	0.185037	19.801815	0.066651
10281.439000	4.151431	0.185037	19.801815	0.066334
10284.431000	4.101283	0.185037	19.802132	0.066651
10287.436000	4.135243	0.185037	19.802132	0.066334
10290.431000	4.138418	0.185037	19.801815	0.066334
10293.473000	4.137783	0.185037	19.802132	0.066334
10296.448000	4.172378	0.185037	19.801815	0.066334
10299.435999	4.145400	0.185037	19.802132	0.066334
10302.444000	4.133974	0.185037	19.801815	0.066334
10305.441000	4.115566	0.185037	19.802132	0.066334
10308.441000	4.137465	0.185037	19.802132	0.066334
10311.440000	4.086683	0.185037	19.801815	0.066651
10314.494000	4.119374	0.185037	19.802132	0.066334
10317.436000	4.144448	0.185037	19.802132	0.066651
10320.432000	4.164126	0.185037	19.802132	0.066334
10323.470000	4.155239	0.185037	19.802132	0.066334
10326.474000	4.174600	0.185037	19.802132	0.066334
10329.432000	4.163174	0.185037	19.802132	0.066334
10332.457000	4.102235	0.185037	19.801815	0.066334
10335.437000	4.134292	0.185037	19.802132	0.066334
10338.537000	4.126357	0.185037	19.802132	0.066334
10341.441000	4.137148	0.185037	19.801815	0.066651
10344.442000	4.138100	0.185037	19.801815	0.066334
10347.434000	4.089857	0.185037	19.802132	0.066334
10350.438000	4.151431	0.185037	19.802132	0.066334
10353.438000	4.159048	0.185037	19.802132	0.066334
10356.442000	4.175552	0.185037	19.802132	0.066334
10359.433000	4.146987	0.185037	19.802132	0.066334
10362.438000	4.166348	0.185037	19.802132	0.066334
10365.439000	4.151113	0.185037	19.801815	0.066334
10368.442000	4.129213	0.185037	19.801815	0.066334
10371.438000	4.115883	0.185037	19.801815	0.066334
10374.514000	4.154922	0.185037	19.801815	0.066651
10377.454999	4.163491	0.185037	19.802132	0.066334
10380.442999	4.122231	0.185037	19.802132	0.066334
10383.439000	4.062562	0.185037	19.801815	0.066334
10386.487000	4.135561	0.185037	19.802132	0.066651
10389.460999	4.138100	0.185037	19.801815	0.066334
10392.444000	4.112709	0.185037	19.802132	0.066334
10395.448000	4.102235	0.185037	19.802132	0.066334
10398.452000	4.135561	0.185037	19.802132	0.066334
10401.444000	4.171108	0.185037	19.801815	0.066334
10404.449999	4.149209	0.185037	19.802132	0.066651
10407.488000	4.117153	0.185037	19.801815	0.066334
10410.535000	4.137783	0.185037	19.801815	0.066334
10413.453000	4.121913	0.185037	19.801815	0.066651
10416.450000	4.121913	0.185037	19.801180	0.066651
10419.437000	4.141909	0.185037	19.801815	0.066334
10422.446001	4.135561	0.185037	19.801815	0.066334
10425.513000	4.112709	0.185037	19.801815	0.066651
10428.442000	4.124135	0.185037	19.801815	0.066334
10431.454999	4.108266	0.185037	19.801815	0.066651
10434.516000	4.149843	0.185037	19.801815	0.066334
10437.442000	4.089857	0.185037	19.801815	0.066334
10440.454000	4.100966	0.185037	19.801815	0.066334
10443.459000	4.121279	0.185037	19.801180	0.066651
10446.451000	4.137783	0.185037	19.801815	0.066334
10449.467000	4.126357	0.185037	19.801815	0.066651
10452.525000	4.148891	0.185037	19.801815	0.066334
10455.437000	4.122866	0.185037	19.801815	0.066334
10458.454000	4.076527	0.185037	19.801815	0.066334
10461.446000	4.139369	0.185037	19.801180	0.066334
10464.447000	4.163174	0.185037	19.801815	0.066334
10467.513000	4.105092	0.185037	19.801815	0.066334
10470.448000	4.149209	0.185037	19.802132	0.066334
10473.476000	4.146987	0.185037	19.801815	0.066334
10476.438000	4.100966	0.185037	19.801815	0.066334
10479.440000	4.074623	0.185037	19.801815	0.066334
10482.440000	4.149526	0.185037	19.801815	0.066334
10485.441000	4.170474	0.185037	19.801815	0.066651
10488.445000	4.144130	0.185037	19.801815	0.066334
10491.441000	4.141592	0.185037	19.801815	0.066334
10494.449000	4.119374	0.185037	19.801815	0.066334
10497.453000	4.192373	0.185037	19.801815	0.066334
10500.508000	4.153969	0.185037	19.801815	0.066334
10503.445000	4.109853	0.185037	19.801815	0.066651
10506.449000	4.165713	0.185037	19.802132	0.066651
10509.451000	4.175234	0.185037	19.801815	0.066651
10512.505000	4.161904	0.185037	19.801815	0.066334
10515.456000	4.175869	0.185037	19.801815	0.066334
10518.536000	4.087953	0.185037	19.801815	0.066334
10521.500000	4.162221	0.185037	19.802132	0.066651
10524.519000	4.126040	0.185037	19.801815	0.066334
10527.473000	4.073988	0.185037	19.801815	0.066334
10530.557000	4.174282	0.185037	19.801180	0.066334
10533.444000	4.137783	0.185037	19.801815	0.066334
10536.533000	4.135879	0.185037	19.801815	0.066334
10539.444000	4.164126	0.185037	19.801815	0.066334
10542.515000	4.173647	0.185037	19.801815	0.066334
10545.444000	4.080018	0.185037	19.802132	0.066334
10548.545000	4.152065	0.185037	19.801815	0.066334
10551.465000	4.173330	0.185037	19.801815	0.066334
10554.445000	4.116835	0.185037	19.801815	0.066334
10557.453000	4.117470	0.185037	19.801815	0.066334
10560.520000	4.115566	0.185037	19.801815	0.066334
10563.516000	4.148891	0.185037	19.801815	0.066334
10566.488000	4.099696	0.185037	19.801815	0.066334
10569.489000	4.136830	0.185037	19.801180	0.066334
10572.456000	4.137465	0.185037	19.801815	0.066651
10575.457000	4.060023	0.185037	19.801815	0.066334
10578.548000	4.135561	0.185037	19.801815	0.066334
10581.473000	4.101601	0.185037	19.801180	0.066334
10584.447999	4.161269	0.185037	19.801815	0.066334
10587.456000	4.137465	0.185037	19.801815	0.066651
10590.520000	4.162539	0.185037	19.801815	0.066651
10593.460000	4.152065	0.185037	19.801815	0.066334
10596.448000	4.126040	0.185037	19.801180	0.066334
10599.522000	4.118104	0.185037	19.801180	0.066334
10602.447000	4.147622	0.185037	19.801815	0.066651
10605.561000	4.146987	0.185037	19.801815	0.066334
10608.493001	4.128261	0.185037	19.801180	0.066334
10611.460000	4.179995	0.185037	19.801815	0.066334
10614.468999	4.151431	0.185037	19.801180	0.066334
10617.456000	4.162221	0.185037	19.801815	0.066334
10620.486000	4.175869	0.185037	19.801815	0.066334
10623.452000	4.099696	0.185037	19.801815	0.066651
10626.452000	4.100648	0.185037	19.801815	0.066651
10629.447000	4.152065	0.185037	19.801815	0.066651
10632.448000	4.137783	0.185037	19.801815	0.066651
10635.447999	4.149843	0.185037	19.801815	0.066334
10638.448000	4.137465	0.185037	19.801815	0.066651
10641.456000	4.137465	0.185037	19.801815	0.066334
10644.510000	4.109853	0.185037	19.801815	0.066334
10647.466000	4.105092	0.185037	19.801815	0.066334
10650.456000	4.112709	0.185037	19.801815	0.066334
10653.523000	4.111122	0.185037	19.801815	0.066651
10656.456000	4.124770	0.185037	19.801815	0.066651
10659.460001	4.120009	0.185037	19.801815	0.066334
10662.452000	4.104140	0.185037	19.801815	0.066334
10665.557000	4.083192	0.185037	19.801815	0.066651
10668.534999	4.100648	0.185037	19.801815	0.066334
10671.513000	4.075575	0.184402	19.801815	0.066334
10674.462000	4.173013	0.185037	19.801815	0.066651
10677.457000	4.138418	0.185037	19.801815	0.066334
10680.540000	4.113027	0.185037	19.801815	0.066334
10683.458000	4.159365	0.185037	19.801815	0.066334
10686.470000	4.137465	0.185037	19.801815	0.066334
10689.458000	4.137465	0.185037	19.802132	0.066651
10692.454000	4.088905	0.185037	19.801180	0.066651
10695.449999	4.123817	0.185037	19.801815	0.066334
10698.479000	4.142861	0.185037	19.801815	0.066334
10701.454000	4.114931	0.185037	19.801815	0.066334
10704.455000	4.126992	0.185037	19.801815	0.066334
10707.455000	4.140322	0.185037	19.802132	0.066334
10710.468000	4.130800	0.185037	19.801815	0.066651
10713.475999	4.131752	0.185037	19.801180	0.066334
10716.456000	4.156508	0.185037	19.801815	0.066334
10719.496000	4.100014	0.185037	19.801815	0.066334
10722.464000	4.148256	0.185037	19.801815	0.066334
10725.544000	4.126040	0.185037	19.801815	0.066334
10728.451000	4.111757	0.185037	19.801180	0.066334
10731.475000	4.164126	0.185037	19.801815	0.066651
10734.556000	4.102870	0.185037	19.801815	0.066334
10737.451000	4.171426	0.185037	19.802132	0.066334
10740.484000	4.151113	0.185037	19.802132	0.066334
10743.540000	4.078114	0.185037	19.802132	0.066334
10746.548000	4.169839	0.185037	19.801815	0.066334
10749.527000	4.159682	0.185037	19.802132	0.066651
10752.477000	4.131752	0.185037	19.801815	0.066334
10755.462000	4.146987	0.185037	19.802132	0.066334
10758.462000	4.113344	0.185037	19.801815	0.066651
10761.466000	4.125087	0.185037	19.801815	0.066651
10764.466000	4.137148	0.185037	19.801815	0.066334
10767.467000	4.118740	0.185037	19.802132	0.066334
10770.467000	4.134292	0.185037	19.802132	0.066334
10773.486000	4.174600	0.185037	19.801815	0.066334
10776.462000	4.170156	0.185037	19.802132	0.066651
10779.464000	4.140322	0.185037	19.801815	0.066334
10782.537000	4.091444	0.185037	19.802132	0.066334
10785.457000	4.126040	0.185037	19.801815	0.066334
10788.461000	4.137465	0.185037	19.801815	0.066334
10791.457000	4.159682	0.185037	19.802132	0.066334
10794.474000	4.137465	0.185037	19.802132	0.066334
10797.504000	4.137783	0.185037	19.802132	0.066334
10800.471000	4.081605	0.185037	19.801815	0.066334
10803.466000	4.107948	0.185037	19.802132	0.066651
10806.466000	4.106678	0.185037	19.801815	0.066651
10809.475000	4.137148	0.185037	19.801815	0.066334
10812.466000	4.116835	0.185037	19.802132	0.066334
10815.541000	4.137465	0.184402	19.801815	0.066334
10818.503000	4.123183	0.185037	19.801815	0.066334
10821.474000	4.151113	0.185037	19.801815	0.066334
10824.516000	4.100014	0.185037	19.801815	0.066651
10827.471000	4.081923	0.185037	19.801815	0.066651
10830.554000	4.167617	0.185037	19.801815	0.066334
10833.529000	4.140005	0.185037	19.801815	0.066334
10836.549000	4.108266	0.185037	19.801815	0.066651
10839.521000	4.165713	0.185037	19.801815	0.066334
10842.471000	4.161587	0.185037	19.801815	0.066651
10845.506999	4.058436	0.185037	19.801180	0.066651
10848.559000	4.132387	0.185037	19.801180	0.066334
10851.529000	4.172378	0.185037	19.801180	0.066334
10854.466000	4.162221	0.184402	19.801815	0.066651
10857.550000	4.136830	0.185037	19.801815	0.066651
10860.487000	4.101283	0.185037	19.801815	0.066334
10863.512001	4.174600	0.185037	19.802132	0.066334
10866.466000	4.125404	0.185037	19.801815	0.066334
10869.474000	4.100014	0.185037	19.801815	0.066334
10872.486000	4.137465	0.185037	19.801815	0.066334
10875.466000	4.101283	0.185037	19.801815	0.066334
10878.571000	4.149843	0.185037	19.801815	0.066651
10881.486000	4.148256	0.185037	19.801815	0.066334
10884.487000	4.137465	0.185037	19.801815	0.066334
10887.458000	4.147305	0.185037	19.801815	0.066334
10890.462000	4.137148	0.185037	19.801815	0.066334
10893.466000	4.092714	0.185037	19.802132	0.066334
10896.457000	4.100014	0.185037	19.801815	0.066334
10899.471000	4.118104	0.185037	19.801815	0.066334
10902.466000	4.103822	0.185037	19.802132	0.066334
10905.470000	4.072083	0.185037	19.801815	0.066334
10908.484000	4.137465	0.185037	19.801815	0.066334
10911.471000	4.100966	0.185037	19.801815	0.066334
10914.467000	4.173965	0.185037	19.801815	0.066651
10917.459000	4.163174	0.185037	19.801815	0.066334
10920.475999	4.101601	0.185037	19.801815	0.066334
10923.458000	4.151113	0.185037	19.801815	0.066334
10926.460000	4.137465	0.185037	19.802132	0.066334
10929.569000	4.101283	0.185037	19.801815	0.066334
10932.506000	4.162221	0.185037	19.801815	0.066334
10935.469000	4.170474	0.185037	19.801815	0.066651
10938.472000	4.162539	0.185037	19.801180	0.066334
10941.564000	4.097475	0.185037	19.801815	0.066334
10944.460001	4.105409	0.185037	19.801180	0.066334
10947.477000	4.128261	0.185037	19.801815	0.066334
10950.546999	4.146987	0.184402	19.801180	0.066334
10953.510000	4.088905	0.185037	19.801180	0.066334
10956.481000	4.155874	0.185037	19.801180	0.066334
10959.484000	4.161587	0.185037	19.801180	0.066651
10962.543000	4.137465	0.185037	19.801180	0.066334
10965.535000	4.210464	0.185037	19.801180	0.066334
10968.464000	4.189517	0.185037	19.801180	0.066334
10971.468000	4.163174	0.185037	19.801180	0.066334
10974.468999	4.114296	0.185037	19.801815	0.066334
10977.530000	4.173647	0.185037	19.801180	0.066334
10980.468000	4.176187	0.185037	19.801815	0.066334
10983.522000	4.102235	0.185037	19.801180	0.066334
10986.469000	4.158413	0.185037	19.801180	0.066334
10989.461000	4.125087	0.185037	19.801815	0.066334
10992.474000	4.153969	0.185037	19.801815	0.066334
10995.493001	4.167300	0.184402	19.801180	0.066651
10998.527999	4.137148	0.185037	19.801180	0.066651
11001.475000	4.128896	0.185037	19.801815	0.066334
11004.467000	4.170156	0.185037	19.801180	0.066334
11007.482999	4.152382	0.185037	19.801180	0.066334
11010.469000	4.130800	0.184402	19.801180	0.066651
11013.464000	4.135879	0.185037	19.801180	0.066334
11016.465000	4.125722	0.185037	19.801180	0.066334
11019.477000	4.137783	0.185037	19.801180	0.066334
11022.473000	4.148891	0.185037	19.801815	0.066334
11025.474000	4.100966	0.185037	19.801180	0.066334
11028.475000	4.125722	0.185037	19.801180	0.066334
11031.508000	4.151431	0.185037	19.801180	0.066334
11034.549000	4.112709	0.184402	19.801180	0.066334
11037.549000	4.089222	0.185037	19.801180	0.066334
11040.466000	4.130166	0.185037	19.801180	0.066334
11043.486000	4.133657	0.185037	19.801180	0.066334
11046.475000	4.162539	0.185037	19.801180	0.066334
11049.545001	4.118740	0.185037	19.801180	0.066334
11052.479000	4.119374	0.185037	19.801180	0.066334
11055.470000	4.156508	0.185037	19.801815	0.066334
11058.516000	4.101601	0.184402	19.801815	0.066334
11061.570000	4.133657	0.185037	19.801815	0.066334
11064.474000	4.210147	0.185037	19.801815	0.066334
11067.466000	4.061927	0.185037	19.801815	0.066334
11070.517000	4.156508	0.185037	19.801815	0.066334
11073.470000	4.137465	0.185037	19.801815	0.066334
11076.474000	4.138100	0.185037	19.801815	0.066334
11079.474000	4.136196	0.185037	19.801815	0.066334
11082.471000	4.120961	0.184402	19.801815	0.066334
11085.546000	4.139369	0.185037	19.801815	0.066334
11088.475000	4.136830	0.185037	19.801815	0.066334
11091.480000	4.131752	0.185037	19.801815	0.066334
11094.475000	4.123500	0.185037	19.801815	0.066334
11097.475000	4.129530	0.185037	19.801815	0.066334
11100.471000	4.146987	0.185037	19.801180	0.066334
11103.467000	4.121596	0.185037	19.801180	0.066334
11106.480000	4.165713	0.185037	19.801180	0.066334
11109.508000	4.135561	0.185037	19.801180	0.066334
11112.488000	4.076844	0.185037	19.801180	0.066334
11115.480000	4.111440	0.184402	19.801180	0.066334
11118.476000	4.157778	0.185037	19.801180	0.066334
11121.492000	4.173647	0.185037	19.800863	0.066334
11124.492000	4.102235	0.185037	19.800863	0.066334
11127.476000	4.169204	0.184402	19.801180	0.066334
11130.487999	4.149209	0.185037	19.800863	0.066334
11133.501000	4.069544	0.185037	19.801180	0.066334
11136.468000	4.168252	0.184402	19.801180	0.066334
11139.476000	4.128261	0.184402	19.801180	0.066334
11142.539000	4.169839	0.185037	19.801180	0.066334
11145.468000	4.133657	0.184402	19.801180	0.066334
11148.472000	4.109218	0.185037	19.801815	0.066334
