LabVIEW Measurement	
Writer_Version	2
Reader_Version	2
Separator	Tab
Decimal_Separator	.
Multi_Headings	No
X_Columns	One
Time_Pref	Absolute
Operator	Mark
Date	2019/07/17
Time	15:20:31.7690000534057617188
***End_of_Header***	
	
Channels	6						
Samples	1	1	1	1	1	1	
Date	2019/07/17	2019/07/17	2019/07/17	2019/07/17	2019/07/17	2019/07/17	
Time	15:20:31.8130002021789550781	15:20:31.8180003166198730469	15:20:31.7690000534057617188	15:20:31.7769999504089355469	15:20:31.826000213623046875	15:20:31.7930002212524414063	
X_Dimension	Time	Time	Time	Time	Time	Time	
X0	0.0000000000000000E+0	0.0000000000000000E+0	0.0000000000000000E+0	0.0000000000000000E+0	0.0000000000000000E+0	0.0000000000000000E+0	
Delta_X	1.000000	1.000000	1.000000	1.000000	1.000000	1.000000	
***End_of_Header***							
X_Value	FieldPoint\FP @ COM1\cFP-AI-110 @2\Channel 2 (Formula Result)	FieldPoint\FP @ COM1\cFP-AI-110 @2\Channel 3 (Formula Result)	FieldPoint\FP @ COM1\cFP-AI-110 @2\Channel 4 (Formula Result)	FieldPoint\FP @ COM1\cFP-AI-110 @2\Channel 5 (Formula Result)	FieldPoint\FP @ COM1\cFP-AI-110 @2\Channel 6 (Formula Result)	FieldPoint\FP @ COM1\cFP-AI-110 @2\Channel 7 (Formula Result)	Comment
0.000000	-73.871978	-1138.866186	848.615229	-234.152734	835.602343	754.351079
2.979000	-73.871978	-1138.390183	870.673656	-229.233220	835.602343	754.509747
5.979000	-73.871978	-1138.390183	903.047204	-229.550615	835.602343	754.668474
8.934999	-73.871978	-1138.390183	978.585482	-223.044172	835.602343	754.668474
11.987000	-73.871978	-1137.914062	931.929469	-220.822453	835.602343	754.668474
14.995999	-73.871978	-1138.072729	734.038293	-228.281066	835.602343	754.351079
17.976000	-73.871978	-1137.755394	154.488429	-236.533135	835.602343	752.446771
20.931000	-73.871978	-1138.231397	-1046.665072	-241.452649	835.602343	752.922833
23.967000	-73.871978	-1138.072729	-713.884175	-268.271893	835.602343	754.192412
26.984000	-73.871978	-1137.914062	-507.106125	-261.924148	835.602343	754.351079
29.987000	-73.713280	-1138.072729	-428.870052	-275.730520	835.602343	754.509747
32.962999	-73.871978	-1138.072729	-374.438077	-273.984879	835.602343	754.509747
35.972000	-73.871978	-1138.390183	-314.134419	-255.417705	835.761011	753.875017
38.995000	-73.871978	-1138.390183	-273.984879	-271.445781	835.761011	753.875017
41.938000	-73.871978	-1138.072729	-250.974268	-276.047915	835.761011	752.922833
44.972000	-73.871978	-1138.707519	-242.404819	-277.952224	835.761011	752.605438
47.939000	-73.871978	-1138.231397	-237.802699	-278.745711	835.761011	752.922833
50.986000	-73.713280	-1138.072729	-229.391918	-263.034999	835.761011	753.240228
53.941000	-73.713280	-1139.342308	-233.359262	-274.937034	835.761011	753.398895
57.020000	-73.871978	-1138.231397	-223.520249	-277.000070	835.761011	753.875017
59.988000	-73.871978	-1138.390183	-223.678946	-280.332625	835.761011	754.509747
62.951000	-73.871978	-1138.390183	-216.537714	-273.984879	835.761011	754.668474
65.992000	-73.871978	-1139.024854	-224.631101	-270.969689	835.761011	754.509747
68.950000	-73.871978	-1138.707519	-214.316010	-272.874027	835.761011	754.192412
71.983000	-73.713280	-1138.866186	-220.028982	-270.969689	835.761011	754.192412
74.942000	-73.713280	-1138.390183	-211.459517	-248.435184	835.761011	753.557622
77.980000	-73.713280	-1138.707519	-214.316010	-267.319739	835.761011	753.875017
80.991000	-73.871978	-1137.914062	-209.555194	-266.843647	835.761011	753.398895
83.939000	-73.871978	-1137.914062	-213.363841	-277.634829	835.761011	753.875017
86.984000	-73.871978	-1138.231397	-208.761722	-271.763176	835.761011	753.557622
89.971000	-73.871978	-1138.072729	-213.998616	-273.508787	835.761011	753.875017
92.932000	-73.871978	-1138.390183	-209.079117	-274.619669	835.761011	753.875017
95.996000	-73.871978	-1137.755394	-217.013806	-274.460971	835.761011	754.192412
98.998000	-73.713280	-1137.437940	-210.507348	-267.795831	835.761011	753.875017
101.986000	-73.871978	-1137.437940	-214.157313	-279.063076	835.761011	753.875017
104.987000	-73.871978	-1137.755394	-217.013806	-275.571823	835.761011	753.557622
107.999000	-73.713280	-1137.755394	-225.741968	-280.808717	835.919678	753.557622
110.995999	-73.871978	-1137.755394	-236.533135	-281.760871	835.761011	753.240228
113.993000	-73.871978	-1137.755394	-237.167910	-271.287084	835.761011	753.240228
116.972000	-73.871978	-1137.755394	-248.593867	-281.602174	835.761011	753.557622
119.988000	-73.713280	-1138.072729	-250.180811	-282.078266	835.761011	753.875017
122.993000	-73.871978	-1137.755394	-270.017534	-281.760871	835.919678	754.033685
126.019000	-73.871978	-1137.755394	-276.682675	-276.365280	835.919678	753.875017
128.943000	-73.713280	-1137.914062	-290.647745	-261.765450	835.919678	754.033685
131.988999	-73.871978	-1138.231397	-305.723637	-277.476162	835.761011	754.192412
134.947000	-73.713280	-1137.914062	-339.208037	-276.841372	835.919678	754.192412
138.000999	-73.871978	-1137.437940	-451.245874	-277.317464	835.919678	753.875017
140.972000	-73.713280	-1138.231397	-451.245874	-273.350120	835.919678	754.033685
143.995999	-73.713280	-1138.072729	-888.447344	-266.843647	835.919678	753.875017
146.997000	-73.871978	-1137.755394	-957.320452	-276.047915	835.919678	753.557622
150.005000	-74.030668	-1137.437940	-582.485676	-275.413126	835.919678	752.922833
152.955000	-73.713280	-1137.914062	-972.555101	-272.556633	835.919678	753.240228
155.977000	-73.713280	-1137.914062	-964.144289	-273.032725	835.919678	753.081560
158.996999	-73.871978	-1138.390183	-976.522446	-273.984879	835.919678	753.240228
162.000999	-73.871978	-1138.390183	-989.535332	-283.823907	835.919678	753.240228
164.955999	-73.871978	-1137.437940	-562.172890	-276.365280	835.919678	753.875017
167.992000	-73.871978	-1138.231397	-836.871862	-247.324318	836.078405	758.159757
170.943000	-73.871978	-1138.707519	718.168914	-238.754854	835.919678	755.937994
173.986000	-73.713280	-1138.072729	882.099628	-232.248411	835.919678	755.461931
176.944000	-73.871978	-1138.231397	910.823166	-192.416266	835.919678	755.144536
179.947999	-73.871978	-1137.914062	937.959850	-226.535425	835.919678	755.303264
182.986000	-73.713280	-1137.914062	944.624960	-221.457228	835.919678	755.144536
186.007999	-73.713280	-1138.231397	950.337946	-226.376742	835.919678	754.509747
188.995000	-73.871978	-1138.390183	956.526995	-227.328897	835.919678	755.144536
192.003000	-73.871978	-1138.072729	957.955241	-224.631101	836.078405	754.985869
194.945000	-73.871978	-1138.072729	960.335672	-224.472418	836.078405	755.144536
197.994000	-73.871978	-1138.866186	962.716043	-221.139848	836.078405	755.144536
200.979000	-73.871978	-1137.914062	963.509560	-224.472418	836.078405	755.620658
203.995000	-73.871978	-1138.231397	970.174670	-226.852819	836.078405	755.461931
206.992000	-73.871978	-1138.390183	966.683388	-213.681236	836.078405	755.937994
209.970999	-73.871978	-1137.914062	966.207325	-228.281066	836.078405	755.620658
212.970999	-73.871978	-1137.755394	968.429029	-233.835340	836.078405	755.937994
215.988000	-73.871978	-1137.437940	743.559897	-227.646291	836.078405	755.144536
218.951000	-73.871978	-1137.437940	747.209847	-229.550615	836.078405	756.096721
221.988999	-73.871978	-1137.755394	779.424727	-217.489883	836.395800	755.620658
224.984000	-73.871978	-1137.279272	777.520359	-230.661467	836.395800	756.096721
227.950000	-73.871978	-1137.914062	782.122493	-234.628811	836.395800	755.937994
230.997000	-73.713280	-1138.072729	786.565900	-231.454939	836.395800	756.096721
233.995000	-73.871978	-1137.755394	786.565900	-234.152734	836.395800	756.255388
236.995999	-73.871978	-1137.437940	790.057182	-240.500480	836.395800	756.414115
239.988000	-73.871978	-1137.914062	788.470268	-239.548326	836.395800	756.096721
242.988999	-73.713280	-1137.437940	787.518084	-233.835340	836.395800	756.255388
245.992000	-73.871978	-1136.961937	788.628936	-227.170199	836.395800	756.096721
248.995000	-73.871978	-1137.437940	790.215909	-235.580981	836.554468	755.937994
252.012000	-73.871978	-1137.755394	787.042022	-237.326607	836.395800	755.303264
254.988000	-73.871978	-1138.072729	786.089838	-241.293952	836.395800	755.303264
257.983000	-73.871978	-1137.755394	784.661591	-240.183100	836.554468	755.303264
260.992001	-73.871978	-1138.072729	786.407232	-241.452649	836.395800	755.461931
263.954000	-73.871978	-1137.914062	782.281220	-217.172489	836.554468	755.461931
266.995000	-73.871978	-1137.279272	782.439888	-241.611347	836.554468	754.985869
269.988000	-73.871978	-1137.279272	782.598555	-210.507348	836.554468	754.668474
272.947999	-73.871978	-1137.279272	779.424727	-242.563501	836.554468	754.668474
276.003000	-73.713280	-1137.914062	780.535579	-244.626522	836.554468	754.985869
278.997000	-73.871978	-1138.390183	779.266000	-245.737389	836.554468	754.192412
281.990000	-73.871978	-1137.437940	777.996480	-244.943917	836.713195	754.351079
284.935000	-73.871978	-1138.072729	776.568234	-240.500480	836.554468	754.351079
287.988999	-73.871978	-1138.866186	776.409507	-243.833050	836.554468	755.461931
290.950000	-73.871978	-1137.279272	775.616050	-244.626522	836.554468	755.144536
294.007999	-73.871978	-1136.961937	770.696521	-232.248411	836.554468	755.620658
296.950000	-73.871978	-1136.803150	771.648705	-240.659177	836.554468	755.461931
299.943000	-73.871978	-1137.755394	770.061791	-235.422283	836.713195	755.937994
303.021000	-73.871978	-1138.072729	768.157423	-233.359262	836.713195	755.937994
305.956000	-73.871978	-1137.755394	768.157423	-233.517960	836.713195	756.096721
309.017000	-73.871978	-1137.437940	766.411841	-216.220334	836.713195	756.255388
311.995000	-73.871978	-1137.437940	767.522693	-241.293952	836.713195	756.572783
314.955000	-73.713280	-1137.437940	765.459657	-243.515670	836.713195	756.255388
317.960999	-73.713280	-1137.437940	766.411841	-245.578691	836.713195	756.572783
321.003000	-73.871978	-1137.437940	764.031410	-244.467840	836.713195	756.890178
323.994000	-73.871978	-1138.072729	762.285769	-245.419994	836.713195	756.890178
327.006000	-73.871978	-1137.437940	761.650980	-250.180811	836.713195	756.890178
329.970000	-73.871978	-1137.279272	759.429276	-249.387339	836.713195	756.890178
333.000000	-73.871978	-1136.961937	760.540128	-245.737389	836.871862	756.572783
335.950000	-73.871978	-1137.437940	725.310087	-250.339508	836.871862	755.937994
338.996000	-73.871978	-1137.437940	728.007913	-245.578691	836.871862	756.255388
342.000000	-73.871978	-1137.437940	729.753554	-214.474693	836.871862	756.414115
344.995999	-73.871978	-1136.961937	729.277432	-249.546036	836.871862	756.890178
347.988000	-73.871978	-1136.961937	730.229616	-248.435184	836.871862	757.366240
350.990000	-73.871978	-1136.803150	729.118764	-250.339508	836.871862	758.001029
353.995999	-73.871978	-1137.279272	730.864406	-252.402514	836.871862	758.159757
356.950000	-73.871978	-1137.437940	701.823413	-238.596156	836.871862	758.001029
359.976000	-73.871978	-1137.437940	697.380006	-255.417705	836.871862	758.159757
362.957000	-73.871978	-1137.279272	703.092992	-256.211162	836.871862	758.001029
365.993999	-73.871978	-1136.961937	705.632091	-255.576402	836.871862	758.001029
369.002000	-73.713280	-1136.961937	709.916830	-258.274198	836.871862	757.366240
372.021999	-73.871978	-1137.914062	710.392892	-258.432895	836.871862	757.524967
374.990000	-73.871978	-1137.914062	716.740668	-263.828486	837.030590	757.366240
377.999000	-73.871978	-1137.437940	717.375398	-257.798105	836.871862	757.524967
380.986000	-73.871978	-1136.961937	722.136259	-260.019839	836.871862	757.048905
384.022000	-73.871978	-1137.914062	723.088384	-256.687254	836.871862	757.207572
386.998000	-73.871978	-1137.279272	724.516630	-228.598446	836.871862	757.048905
389.948000	-73.871978	-1136.644483	724.040568	-256.211162	837.030590	757.524967
392.981000	-73.871978	-1136.803150	735.149145	-252.878606	837.030590	757.524967
395.993999	-73.871978	-1137.437940	771.490037	-183.529407	836.871862	757.683635
398.960999	-73.871978	-1136.961937	792.120218	-243.515670	836.871862	758.159757
401.979000	-73.871978	-1137.279272	938.594639	-179.879442	837.030590	758.159757
404.983000	-73.871978	-1137.914062	913.203597	-183.370709	837.030590	758.159757
407.966000	-73.871978	-1137.437940	791.644156	-190.988019	837.030590	757.366240
411.000000	-73.871978	-1137.437940	335.240692	-215.744257	837.030590	756.890178
414.004000	-73.871978	-1136.961937	-1009.530783	-275.889218	837.347925	755.620658
417.007000	-73.871978	-1136.961937	-940.340221	-280.650020	837.030590	756.255388
419.950000	-73.871978	-1136.961937	-486.158520	-287.791252	837.030590	757.207572
422.950000	-73.871978	-1136.961937	-320.640862	-286.997765	837.347925	757.048905
426.032000	-73.871978	-1136.803150	-271.763176	-279.697865	837.347925	757.207572
429.004000	-73.871978	-1136.644483	-235.898361	-283.030421	837.347925	757.048905
431.958000	-73.871978	-1136.961937	-198.129237	-284.934759	837.347925	756.890178
435.003000	-73.713280	-1136.961937	-172.896922	-260.654598	837.347925	756.890178
438.004000	-73.871978	-1136.803150	-154.805824	-280.491322	837.347925	757.207572
440.959001	-73.871978	-1136.644483	-154.805824	-277.476162	837.347925	757.207572
444.008999	-73.871978	-1136.961937	-148.775458	-274.619669	837.347925	756.890178
447.005000	-73.871978	-1136.961937	-150.679782	-285.093457	837.347925	756.572783
449.979000	-73.871978	-1136.644483	-150.997177	-277.952224	837.347925	757.048905
453.004000	-73.871978	-1136.644483	-149.410233	-287.473857	837.347925	757.207572
456.007999	-73.871978	-1136.803150	-151.314557	-286.680400	837.347925	757.366240
459.033000	-73.871978	-1136.644483	-151.949331	-281.602174	837.030590	756.414115
461.967000	-73.871978	-1136.327147	-146.395057	-293.028146	837.030590	755.937994
465.004000	-73.871978	-1136.327147	-151.473254	-292.075992	837.347925	755.620658
468.010000	-73.871978	-1136.644483	-149.251536	-290.965110	837.347925	756.414115
471.006000	-73.871978	-1136.327147	-147.347212	-286.521703	837.347925	756.255388
473.953000	-73.871978	-1136.168361	-149.886310	-277.476162	837.347925	756.890178
476.960000	-73.871978	-1136.168361	-150.045007	-293.662906	837.347925	756.890178
480.013000	-73.871978	-1136.327147	-141.792923	-293.028146	837.347925	757.207572
483.010000	-73.713280	-1136.009693	-146.395057	-296.519399	837.347925	757.048905
486.011000	-73.871978	-1136.644483	-149.727628	-293.504238	837.347925	757.207572
489.001000	-73.871978	-1137.279272	-147.347212	-283.665210	837.506652	757.366240
492.006999	-73.713280	-1136.644483	-140.840769	-297.947645	837.506652	757.207572
494.994000	-73.871978	-1136.644483	-147.029832	-295.567244	837.506652	757.366240
498.014000	-73.871978	-1137.279272	-145.125493	-295.408547	837.506652	757.683635
500.954000	-73.871978	-1136.644483	-142.110318	-288.584709	837.665319	758.001029
503.993999	-73.713280	-1136.803150	-148.299381	-284.776062	837.506652	757.524967
506.961000	-73.871978	-1136.803150	-149.092853	-288.426012	837.665319	757.207572
510.006999	-73.871978	-1137.914062	-144.649416	-286.521703	837.665319	756.572783
513.024000	-73.871978	-1136.961937	-147.981986	-290.489048	837.665319	757.207572
515.967000	-73.713280	-1137.437940	-152.425423	-290.171653	837.665319	757.366240
519.018000	-73.871978	-1136.803150	-145.284191	-287.473857	837.665319	757.524967
521.967999	-73.871978	-1136.961937	-150.997177	-281.760871	837.665319	757.524967
525.009000	-73.871978	-1137.437940	-161.312267	-291.917294	837.665319	758.159757
527.977999	-73.713280	-1136.961937	-163.057908	-288.584709	837.824047	758.318424
531.026000	-73.871978	-1136.803150	-160.201415	-289.854258	837.824047	758.477151
533.969000	-73.871978	-1136.961937	-165.755704	-284.617364	837.824047	758.477151
537.017000	-73.871978	-1136.961937	-163.216591	-281.126112	837.824047	759.270608
540.009000	-73.713280	-1136.803150	-164.803535	-284.141302	837.824047	759.111881
542.996000	-73.713280	-1137.437940	-162.105739	-284.458667	837.824047	759.429276
545.967000	-73.871978	-1136.803150	-162.423134	-288.584709	837.824047	759.429276
549.043999	-73.713280	-1136.644483	-168.770880	-288.108647	837.982714	759.270608
552.014999	-73.871978	-1136.327147	-173.055619	-276.047915	837.982714	759.270608
554.960999	-73.871978	-1136.803150	-170.992598	-287.791252	837.824047	759.429276
558.014999	-73.871978	-1136.961937	-169.246957	-294.615090	837.982714	758.953214
561.014000	-73.871978	-1137.279272	-173.372999	-285.886914	837.824047	759.429276
563.966000	-73.871978	-1136.803150	-176.229492	-284.458667	837.824047	759.429276
567.009000	-73.713280	-1136.803150	-169.405654	-267.478436	837.982714	759.588003
570.004000	-73.713280	-1136.961937	-177.022964	-286.521703	837.982714	759.429276
572.959001	-73.871978	-1136.803150	-182.894632	-282.078266	837.982714	759.905338
576.006999	-73.871978	-1137.279272	-185.116351	-277.952224	837.982714	759.588003
578.962999	-73.871978	-1136.327147	-185.592428	-283.506513	837.982714	759.905338
582.019000	-73.871978	-1137.755394	-184.164181	-276.365280	837.982714	759.588003
585.019000	-73.871978	-1138.072729	-192.892343	-284.617364	838.300109	760.222733
587.959000	-73.871978	-1136.961937	-187.972829	-280.332625	837.982714	759.588003
590.962000	-73.713280	-1137.279272	-203.366131	-275.571823	837.982714	759.588003
594.012000	-73.871978	-1137.437940	-197.653159	-281.919569	837.982714	759.429276
597.017000	-73.871978	-1136.803150	-195.431441	-279.856563	837.982714	759.429276
600.021000	-73.871978	-1136.803150	-198.129237	-277.952224	838.300109	759.111881
602.973000	-73.871978	-1137.437940	-198.446631	-277.317464	837.982714	758.953214
605.967999	-73.713280	-1137.437940	-196.224913	-271.921873	838.300109	758.953214
609.030000	-73.871978	-1136.327147	-203.366131	-275.571823	838.300109	759.429276
612.006000	-73.871978	-1136.168361	-208.444342	-277.000070	838.300109	759.270608
615.017000	-73.713280	-1136.168361	-206.063926	-265.256733	838.300109	758.953214
617.977000	-73.713280	-1136.168361	-214.792088	-275.730520	838.300109	759.111881
621.018000	-73.713280	-1136.168361	-219.235510	-270.493627	838.300109	759.905338
624.014000	-73.713280	-1136.009693	-220.028982	-275.413126	838.300109	759.905338
627.017999	-73.871978	-1135.851026	-220.822453	-275.571823	838.300109	759.588003
629.977999	-73.871978	-1135.692358	-233.517960	-268.589288	838.300109	759.588003
632.962000	-73.871978	-1136.009693	-222.568080	-278.745711	838.300109	760.064065
635.986000	-73.713280	-1136.168361	-231.613636	-275.413126	838.458836	760.064065
639.014999	-73.871978	-1136.009693	-229.550615	-272.715330	838.458836	759.905338
641.965000	-73.713280	-1136.168361	-233.676657	-278.745711	838.458836	760.064065
645.029000	-73.871978	-1135.851026	-230.344087	-266.684979	838.458836	760.381460
648.017000	-73.871978	-1135.851026	-241.611347	-280.808717	838.458836	760.540128
650.954000	-73.713280	-1135.692358	-243.515670	-279.063076	838.458836	760.540128
653.980000	-73.713280	-1135.851026	-249.863416	-269.541442	838.458836	760.540128
657.006000	-73.713280	-1136.168361	-256.211162	-278.110921	838.458836	760.064065
659.981999	-73.871978	-1135.692358	-260.019839	-276.841372	838.458836	759.429276
663.023000	-73.871978	-1135.692358	-256.845951	-278.428316	838.458836	758.953214
666.051000	-73.713280	-1136.009693	-270.334929	-278.904378	838.617504	758.477151
668.986000	-73.871978	-1135.216236	-284.776062	-269.858837	838.617504	758.001029
671.990000	-73.871978	-1134.898901	-280.015260	-276.841372	838.458836	757.524967
675.023000	-73.713280	-1135.216236	-286.521703	-278.745711	838.458836	757.366240
678.052999	-73.871978	-1135.216236	-296.678096	-281.126112	838.458836	758.159757
681.014999	-73.871978	-1135.692358	-281.760871	-280.491322	838.458836	758.477151
683.970000	-73.871978	-1135.851026	-289.060801	-276.682675	838.458836	758.635819
686.973000	-73.871978	-1136.644483	-283.982605	-281.126112	838.617504	758.953214
690.018000	-73.871978	-1136.327147	-286.839098	-278.587013	838.458836	759.270608
693.040000	-73.871978	-1136.009693	-295.884639	-277.634829	838.617504	759.588003
696.030000	-73.871978	-1135.851026	-304.136723	-274.302274	838.617504	760.064065
698.963000	-73.871978	-1136.009693	-310.960531	-270.969689	838.617504	760.064065
702.025001	-73.871978	-1135.851026	-311.277926	-264.780641	838.617504	760.381460
705.021000	-73.871978	-1136.009693	-323.179960	-276.365280	838.617504	760.064065
708.020000	-73.871978	-1136.009693	-321.910411	-271.287084	838.617504	760.222733
711.025000	-73.871978	-1136.009693	-333.336383	-276.682675	838.617504	760.222733
713.971000	-73.871978	-1135.851026	-343.968868	-276.523978	838.617504	760.381460
717.037000	-73.871978	-1135.851026	-347.142726	-272.080570	838.617504	760.064065
720.023000	-73.871978	-1136.009693	-353.966564	-279.697865	838.617504	760.222733
722.996000	-73.871978	-1135.851026	-370.153338	-277.634829	838.617504	760.222733
725.975000	-73.871978	-1135.851026	-377.611935	-285.093457	838.617504	760.540128
728.967000	-73.871978	-1135.216236	-392.211795	-280.808717	838.776171	760.540128
732.033999	-73.871978	-1135.692358	-396.179140	-270.017534	838.776171	760.698855
735.017000	-73.871978	-1135.692358	-407.446384	-278.428316	838.776171	760.540128
738.025000	-73.713280	-1135.374904	-420.776665	-275.413126	838.776171	761.174917
740.972000	-73.871978	-1135.851026	-417.761475	-273.826182	838.776171	761.333585
744.029000	-73.871978	-1135.692358	-425.061405	-271.921873	838.776171	761.650980
747.034000	-73.871978	-1135.851026	-417.602777	-251.767755	838.934898	761.968374
750.026000	-73.871978	-1135.374904	-433.313489	-273.984879	838.934898	761.968374
752.977000	-73.871978	-1135.374904	-430.774391	-269.382775	838.934898	761.968374
756.041999	-73.871978	-1135.851026	-441.565573	-274.778366	838.934898	762.127101
759.026999	-73.871978	-1135.374904	-453.626275	-272.397935	838.934898	762.127101
761.981999	-73.713280	-1135.216236	-465.052247	-265.415430	838.934898	761.968374
764.970000	-73.871978	-1135.057569	-500.758350	-274.619669	838.934898	761.968374
768.012000	-73.871978	-1136.009693	-525.673270	-273.826182	838.934898	761.968374
770.981000	-73.871978	-1135.216236	-644.217551	-267.954528	838.934898	761.968374
774.034000	-73.871978	-1135.057569	-835.284948	-275.889218	838.934898	761.492312
776.978000	-73.871978	-1135.057569	-1008.102536	-270.017534	838.934898	761.492312
780.030000	-73.871978	-1135.374904	-987.948418	-275.413126	838.934898	761.333585
782.977999	-73.871978	-1135.692358	-1024.130583	-274.937034	838.934898	761.333585
785.973000	-73.871978	-1135.374904	-1030.795693	-272.874027	838.934898	761.174917
789.021999	-73.871978	-1135.692358	-1043.808579	-279.063076	838.934898	761.650980
791.999000	-73.871978	-1136.168361	-1066.343188	-278.904378	838.934898	761.016250
795.029000	-73.871978	-1135.374904	-1056.345463	-267.954528	838.934898	760.698855
798.032000	-73.871978	-1135.374904	-1071.421385	-283.823907	838.934898	760.698855
800.999000	-73.713280	-1135.057569	-1054.441094	-281.919569	838.934898	761.016250
804.032000	-73.871978	-1135.374904	-1062.375784	-284.458667	838.934898	760.540128
806.979000	-73.871978	-1135.374904	-1047.458529	-281.126112	838.934898	761.016250
809.986000	-73.871978	-1136.009693	-1062.851906	-261.765450	838.934898	761.016250
813.024000	-73.871978	-1135.216236	-1042.856455	-280.491322	838.934898	761.016250
816.011000	-73.713280	-1135.374904	-1063.327909	-277.000070	838.934898	760.698855
818.974000	-73.871978	-1135.216236	-1063.962698	-272.874027	838.934898	761.016250
822.027000	-73.871978	-1134.422779	-1061.423659	-261.924148	839.093566	760.698855
825.036000	-73.871978	-1134.898901	-1073.801756	-252.719909	839.093566	761.174917
828.023000	-73.871978	-1134.740114	-1055.234551	-269.382775	839.093566	761.333585
831.023000	-73.871978	-1135.057569	-1037.143469	-276.047915	839.093566	761.174917
834.028000	-73.871978	-1135.057569	-1015.243769	-268.271893	839.093566	761.650980
837.016000	-73.871978	-1136.327147	-1044.602036	-276.365280	839.093566	761.333585
840.032000	-73.871978	-1134.740114	-1026.828408	-276.365280	839.093566	761.650980
843.035000	-73.871978	-1134.898901	-1070.627928	-278.904378	839.093566	761.492312
846.034000	-73.871978	-1134.740114	-1066.501856	-277.000070	839.093566	761.492312
848.989000	-73.871978	-1134.740114	-1074.912548	-274.778366	839.093566	761.016250
852.038000	-73.871978	-1134.740114	-1044.602036	-282.871723	839.093566	761.333585
855.034000	-73.871978	-1134.264112	-1045.871615	-260.971993	839.093566	761.016250
858.027000	-73.871978	-1135.057569	-1063.010573	-281.443506	839.093566	760.698855
861.029999	-73.871978	-1135.216236	-1035.873890	-280.808717	839.093566	760.222733
864.033999	-73.871978	-1134.740114	-1063.010573	-273.667485	839.093566	759.588003
866.974000	-73.871978	-1134.740114	-1042.697787	-281.760871	839.093566	759.270608
870.028000	-73.871978	-1134.898901	-1056.980252	-284.141302	839.093566	760.222733
872.990000	-73.871978	-1135.057569	-1037.143469	-285.728216	839.410961	760.064065
875.981000	-73.871978	-1134.105444	-1053.647637	-286.997765	839.410961	760.381460
879.040000	-73.871978	-1134.264112	-1034.128308	-280.967414	839.093566	760.698855
881.988000	-73.871978	-1134.898901	-978.902817	-265.891492	839.410961	760.698855
884.988000	-73.871978	-1134.422779	-1051.743269	-282.713056	839.410961	760.381460
888.040999	-73.871978	-1135.057569	-1030.319691	-284.458667	839.410961	760.381460
891.045000	-73.871978	-1134.740114	-1043.649912	-286.680400	839.410961	759.905338
893.983000	-73.713280	-1134.422779	-995.724380	-279.856563	839.410961	759.905338
897.029000	-73.871978	-1134.898901	662.943423	-220.505059	839.410961	761.174917
900.029000	-73.871978	-1134.740114	741.972983	-247.959092	839.410961	760.064065
903.036000	-73.871978	-1134.740114	885.749578	-240.659177	839.410961	760.222733
905.984000	-73.871978	-1135.692358	904.158056	-244.309142	839.410961	760.064065
908.983000	-73.871978	-1135.851026	915.107906	-241.135269	839.410961	760.064065
912.025000	-73.871978	-1135.851026	919.868767	-230.820164	839.410961	760.064065
914.983000	-73.871978	-1135.216236	930.501223	-244.309142	839.410961	760.698855
918.036999	-73.871978	-1135.216236	934.309900	-235.739678	839.410961	761.016250
920.983000	-73.871978	-1135.216236	941.927195	-238.913551	839.410961	761.174917
924.025000	-73.871978	-1134.898901	942.879319	-234.787509	839.410961	761.016250
926.981000	-73.871978	-1134.898901	947.640181	-223.044172	839.410961	761.968374
929.988000	-73.871978	-1135.057569	945.418417	-231.137559	839.410961	761.968374
932.988000	-73.871978	-1135.692358	955.574870	-229.074538	839.410961	762.285769
936.029000	-73.871978	-1135.374904	953.987896	-228.281066	839.569688	762.285769
939.033999	-73.871978	-1135.851026	955.098748	-231.137559	839.569688	762.603164
942.029999	-73.871978	-1135.692358	957.003117	-227.170199	839.569688	762.603164
945.017999	-73.871978	-1135.216236	781.170309	-234.311432	839.569688	762.444496
948.035000	-73.871978	-1135.692358	791.802824	-235.263586	839.569688	762.444496
951.061000	-73.713280	-1135.216236	799.737513	-221.615925	839.569688	763.079226
953.983000	-73.871978	-1135.374904	805.767894	-235.739678	839.569688	763.396621
956.995000	-73.871978	-1135.216236	810.211301	-227.804989	839.569688	763.237953
960.033000	-73.871978	-1136.168361	813.861251	-233.835340	839.569688	763.237953
962.993999	-73.871978	-1134.264112	814.337373	-234.787509	839.569688	763.079226
966.045000	-73.871978	-1134.264112	816.559076	-230.661467	839.569688	763.079226
969.012000	-73.871978	-1134.740114	817.669928	-235.104904	839.569688	762.920558
972.007999	-73.871978	-1134.422779	813.543856	-248.911262	839.569688	762.285769
975.004000	-73.871978	-1134.898901	820.843816	-246.213466	839.569688	762.285769
978.034000	-73.871978	-1134.422779	824.652433	-267.795831	839.569688	761.968374
981.037000	-73.871978	-1134.740114	830.524147	-280.332625	839.569688	761.650980
983.988000	-73.871978	-1134.105444	826.874137	-283.347815	839.569688	761.333585
987.037000	-73.871978	-1134.105444	828.302383	-294.932455	839.569688	761.174917
989.988000	-73.871978	-1134.105444	826.874137	-292.075992	839.569688	761.492312
993.036000	-73.871978	-1134.740114	827.032864	-299.534589	2941.151857	761.174917
996.043000	-73.871978	-1134.898901	822.906792	-292.075992	2855.139971	2942.897558
999.032000	-73.871978	-1133.629322	817.828596	-290.965110	2809.594870	2906.715393
1002.044000	-73.871978	-1133.787990	817.987323	-293.662906	2763.097525	2869.263649
1005.052000	-73.871978	-1133.787990	814.813435	-287.949950	2738.976002	2849.903107
1008.000000	-73.871978	-1133.787990	814.178646	-294.615090	2708.982944	2825.940132
1011.036000	-73.871978	-1133.153200	812.909126	-292.075992	2691.843987	2811.975241
1014.023000	-73.713280	-1133.311987	806.878746	-263.352394	2668.992043	2800.231934
1016.984000	-73.871978	-1133.787990	809.893906	-278.428316	2655.661821	2783.410311
1020.036999	-73.871978	-1133.787990	807.354808	-264.939338	2642.966270	2773.095131
1023.017000	-73.871978	-1133.629322	760.540128	-269.541442	2625.668526	2758.971453
1026.045000	-73.871978	-1133.311987	768.316150	-269.700140	3159.038544	3191.253424
1028.986000	-73.871978	-1134.105444	774.981260	-252.561212	3111.113071	3161.736250
1032.045000	-73.871978	-1134.105444	783.709466	-262.717634	3091.911077	3148.564816
1035.037000	-73.871978	-1134.264112	811.322153	-252.878606	3068.106890	3137.138844
1037.982000	-73.871978	-1134.422779	821.637273	-249.704733	3054.459333	3121.428013
1040.999000	-73.871978	-1134.105444	838.776171	-242.722198	3041.922569	3111.430407
1044.046000	-73.871978	-1134.105444	857.660770	-237.485304	3024.307489	3097.306728
1047.014000	-73.871978	-1133.787990	948.592305	-243.515670	3013.674974	3089.054585
1050.059999	-73.871978	-1133.311987	947.322786	-248.593867	2998.599052	3077.311277
1053.042000	-73.871978	-1133.629322	948.433638	-243.833050	2988.918781	3069.852591
1055.984000	-73.871978	-1133.629322	952.242255	-250.815600	2975.429773	3063.028812
1059.042000	-73.871978	-1134.264112	957.479179	-243.198276	2967.019081	3053.189754
1062.036000	-73.871978	-1133.946657	958.431363	-247.959092	2958.608150	3046.683311
1065.042000	-73.871978	-1133.787990	962.239981	-253.354698	2946.706295	3037.003040
1067.982999	-73.871978	-1133.787990	954.940081	-235.580981	2939.406395	3030.813932
1071.046000	-73.871978	-1133.629322	764.507473	-263.352394	2928.456545	3022.403240
1073.993999	-73.871978	-1133.946657	772.600889	-256.845951	2921.473980	3016.848803
1077.049000	-73.871978	-1133.629322	770.220459	-233.676657	2911.317587	3008.438110
1080.035000	-73.871978	-1133.629322	774.981260	-262.558937	2904.969692	3003.201246
1083.067000	-73.871978	-1134.422779	777.520359	-254.941612	2895.448208	2998.281717
1086.079000	-73.871978	-1133.946657	784.661591	-262.241542	2889.417648	2990.347147
1089.032000	-73.871978	-1134.105444	790.533245	-258.432895	2883.387327	2985.586166
1092.038000	-73.871978	-1133.629322	798.150599	-242.404819	2874.817848	2977.810144
1095.046000	-73.871978	-1134.105444	809.259117	-260.337204	2869.104862	2973.366737
1097.993999	-73.871978	-1133.629322	813.226461	-263.511091	2861.011505	2968.447208
1101.047000	-73.871978	-1133.946657	822.589397	-276.365280	2855.774641	2961.782217
1104.000000	-73.871978	-1133.946657	838.776171	-268.747985	2847.840071	2957.180023
1107.006000	-73.871978	-1134.422779	860.517263	-252.561212	2842.920542	2951.149702
1110.049000	-73.871978	-1134.740114	940.975010	-261.448085	2837.842226	2946.388960
1113.010000	-73.871978	-1134.422779	944.307566	-260.654598	2830.701113	2939.882517
1116.048000	-73.871978	-1133.629322	942.085862	-251.926452	2825.940132	2935.438871
1119.046000	-73.871978	-1133.311987	959.224820	-256.211162	2818.957806	2929.250002
1122.000999	-73.871978	-1133.787990	953.353107	-250.339508	2814.514160	2925.600052
1124.998000	-73.713280	-1133.787990	960.335672	-262.876302	2807.690382	2922.267437
1128.054000	-73.871978	-1133.629322	955.257475	-263.034999	2803.405762	2915.919542
1131.045000	-73.871978	-1133.946657	959.066093	-254.624248	2799.279690	2911.476135
1134.043000	-73.871978	-1133.787990	954.622686	-262.717634	2792.614460	2905.128479
1137.001000	-73.871978	-1134.740114	961.922586	-257.798105	2788.647175	2901.002407
1139.994000	-73.871978	-1133.629322	956.209600	-262.241542	2782.616854	2895.448208
1143.031000	-73.871978	-1135.057569	958.272636	-262.717634	2778.649569	2892.274141
1146.047000	-73.871978	-1134.740114	955.416143	-259.702444	2772.619009	2889.417648
1149.016000	-73.871978	-1134.422779	957.637846	-266.050190	2768.810511	2884.815693
1152.004000	-73.871978	-1134.105444	955.416143	-272.556633	2765.319109	2881.959200
1155.039000	-73.871978	-1133.787990	958.272636	-220.187679	2759.447575	2877.357006
1158.036000	-73.871978	-1134.105444	955.892265	-278.587013	2755.956173	2874.341965
1161.049000	-73.871978	-1134.264112	957.003117	-276.523978	2750.560760	2869.739771
1164.048000	-73.871978	-1134.740114	953.035772	-280.967414	2747.069359	2866.883278
1167.041000	-73.871978	-1134.898901	948.274910	-279.063076	2741.515160	2863.867998
1169.999001	-73.871978	-1133.629322	934.151173	-265.891492	2738.182545	2859.583378
1173.043999	-73.871978	-1133.946657	934.151173	-271.763176	2735.008717	2856.568098
1176.000000	-73.871978	-1133.946657	928.755581	-265.415430	2729.613066	2852.442026
1179.052000	-73.871978	-1133.153200	935.579419	-278.428316	2726.439238	2849.426985
1182.052000	-73.871978	-1133.629322	934.785962	-271.921873	2721.519709	2845.142126
1185.034000	-73.871978	-1133.946657	941.927195	-252.402514	2718.504429	2842.127085
1188.049000	-73.871978	-1133.153200	941.292405	-271.921873	2713.743687	2839.111805
1190.995000	-73.713280	-1133.629322	945.577145	-270.969689	2710.411072	2834.668398
1193.994000	-73.871978	-1133.153200	943.038046	-248.752564	2707.396030	2832.129240
1197.052000	-73.871978	-1133.629322	948.116243	-264.780641	2702.952623	2828.320742
1200.021000	-73.871978	-1133.946657	948.116243	-236.374453	2699.778557	2825.781584
1203.006999	-73.871978	-1133.787990	951.290131	-259.861141	2695.176601	2821.020842
1205.991000	-73.871978	-1133.311987	948.433638	-252.402514	2692.320108	2818.799019
1209.040000	-73.871978	-1133.629322	950.337946	-243.833050	2688.035250	2816.735983
1212.047000	-73.871978	-1133.153200	952.242255	-260.971993	2685.178757	2813.403368
1215.048000	-73.871978	-1133.153200	940.022826	-262.241542	2680.894136	2810.864210
1218.009000	-73.871978	-1133.153200	950.972736	-265.415430	2677.878857	2807.373047
1221.054000	-73.871978	-1133.153200	950.496674	-268.271893	2675.181150	2805.627346
1224.050000	-73.871978	-1133.153200	952.242255	-257.956803	2671.055079	2801.660061
1227.036000	-73.871978	-1132.677197	957.320452	-276.365280	2668.198586	2799.438477
1230.059000	-73.871978	-1132.835865	948.909700	-268.271893	2664.231300	2795.312405
1232.998000	-73.871978	-1132.835865	958.272636	-265.891492	2661.692142	2793.249369
1236.072000	-73.713280	-1132.994533	957.003117	-258.274198	2657.724857	2790.392876
1239.006000	-73.871978	-1133.153200	958.113968	-244.309142	2655.026913	2787.219048
1242.058000	-73.871978	-1132.835865	954.940081	-233.835340	2652.487993	2784.521103
1245.006000	-73.871978	-1133.153200	961.446524	-251.291662	2648.520470	2780.871153
1248.048000	-73.871978	-1132.677197	949.068427	-205.746546	2645.981550	2779.125452
1250.995000	-73.871978	-1132.835865	940.340221	-250.339508	2642.172813	2774.523497
1254.007999	-73.871978	-1132.677197	940.816343	-251.291662	2639.792442	2772.777796
1257.028000	-73.871978	-1132.994533	931.294680	-251.609057	2635.824919	2766.747475
1260.064000	-73.871978	-1132.835865	928.755581	-260.654598	2633.444548	2763.573647
1263.051000	-73.871978	-1132.835865	934.468567	-261.924148	2630.905628	2761.510611
1266.053000	-73.871978	-1132.835865	935.262024	-262.717634	2627.414227	2757.384539
1269.053000	-73.871978	-1132.677197	944.466293	-267.002344	2625.033855	2752.623796
1272.050000	-73.871978	-1132.677197	908.284068	-240.659177	2621.066570	2748.021603
1275.054000	-73.871978	-1132.201076	918.757856	-286.839098	2618.844748	2744.212866
1278.005000	-73.871978	-1132.042408	948.909700	-277.317464	2615.512133	2743.102074
1281.051000	-73.871978	-1132.359743	948.433638	-275.413126	2612.973213	2739.452124
1284.043000	-73.871978	-1132.359743	939.229369	-251.767755	2610.751390	2738.341331
1287.033000	-73.871978	-1132.359743	947.957516	-241.770044	2607.418776	2735.643387
1290.027000	-73.871978	-1132.359743	943.355441	-253.672063	2604.879856	2733.897924
1293.055000	-73.871978	-1132.201076	949.544489	-251.926452	2601.547241	2730.406523
1296.013000	-73.871978	-1132.042408	946.211934	-253.196001	2599.484205	2728.343487
1299.062000	-73.871978	-1132.359743	944.466293	-263.034999	2596.151590	2727.073908
1302.010000	-73.871978	-1132.042408	942.879319	-255.735099	2593.929768	2724.852324
1305.003000	-73.871978	-1131.724954	947.957516	-277.793527	2591.866732	2722.789288
1308.054999	-73.871978	-1132.042408	944.466293	-270.334929	2588.375568	2720.250130
1311.047999	-73.871978	-1132.042408	948.116243	-279.856563	2586.312532	2718.504429
1314.018000	-73.871978	-1132.042408	940.181553	-280.967414	2583.138704	2716.124058
1317.006000	-73.871978	-1131.883740	947.164059	-271.921873	2581.075668	2713.426352
1320.084000	-73.871978	-1131.883740	950.337946	-267.319739	2578.060389	2710.728407
1323.060000	-73.871978	-1132.042408	937.325060	-274.937034	2575.680017	2708.189487
1326.003000	-73.871978	-1131.883740	944.466293	-269.858837	2573.616982	2707.237244
1329.059999	-73.871978	-1131.883740	948.116243	-281.760871	2570.601940	2705.332994
1331.999000	-73.871978	-1131.883740	936.055481	-270.334929	2568.538904	2703.904629
1335.056000	-73.871978	-1131.883740	939.070702	-248.752564	2565.523624	2701.206923
1338.056000	-73.871978	-1132.677197	927.327335	-270.334929	2563.460588	2699.937344
1341.042000	-73.871978	-1133.787990	923.359990	-259.385049	2560.286760	2698.350430
1344.004000	-73.871978	-1132.994533	907.808006	-263.034999	2558.382511	2696.128607
1347.009000	-73.871978	-1132.677197	911.457956	-267.319739	2555.526018	2693.748236
1350.043000	-73.871978	-1132.677197	907.331944	-251.926452	2553.621531	2688.828707
1353.010000	-73.871978	-1132.359743	912.251413	-267.795831	2551.717281	2686.765671
1356.002000	-73.871978	-1132.835865	926.375210	-263.828486	2548.702240	2684.385300
1359.058000	-73.871978	-1133.629322	923.836112	-274.937034	2546.956539	2682.957172
1362.066999	-73.871978	-1133.311987	934.151173	-269.700140	2543.941259	2680.576801
1365.028000	-73.871978	-1132.835865	933.992505	-271.921873	2542.037010	2679.624557
1368.046000	-73.871978	-1133.153200	927.486062	-278.745711	2539.180517	2676.609278
1371.062000	-73.871978	-1133.153200	933.357716	-275.730520	2537.276268	2673.276663
1374.050000	-73.871978	-1133.311987	921.931744	-252.561212	2535.371780	2671.531200
1377.010000	-73.871978	-1133.629322	921.931744	-282.395661	2532.832861	2668.992043
1380.014000	-73.871978	-1133.629322	922.407866	-270.969689	2530.928373	2667.246342
1383.046000	-73.871978	-1132.201076	918.123126	-278.428316	2528.071880	2665.976763
1386.068000	-73.871978	-1132.359743	915.901423	-279.063076	2526.167631	2664.865971
1389.053000	-73.871978	-1132.677197	913.838387	-258.908957	2523.469925	2663.913727
1392.014000	-73.871978	-1132.359743	916.853547	-276.841372	2521.882772	2661.057234
1395.019000	-73.871978	-1132.042408	923.042595	-271.763176	2519.978523	2659.787893
1398.059000	-73.871978	-1132.359743	926.851273	-275.889218	2517.280817	2657.724857
1401.015000	-73.871978	-1132.201076	929.549038	-275.413126	2515.535116	2656.931400
1404.075000	-73.871978	-1132.359743	931.453407	-271.604478	2512.837410	2655.979156
1407.074999	-73.871978	-1131.724954	931.929469	-281.760871	2511.091709	2655.661821
1410.069999	-73.871978	-1132.359743	932.246864	-281.919569	2508.711338	2654.868364
1413.005000	-73.871978	-1132.042408	937.483728	-282.871723	2506.965637	2652.963877
1416.009000	-73.871978	-1132.359743	939.864159	-283.347815	2505.219936	2651.694536
1419.064000	-73.871978	-1132.201076	942.403257	-279.697865	2502.839565	2649.790049
1422.013000	-73.871978	-1132.042408	943.990171	-276.365280	2501.093864	2648.520470
1425.043000	-73.871978	-1131.724954	940.816343	-274.460971	2498.396158	2645.187855
1428.054000	-73.871978	-1131.407619	944.466293	-258.908957	2496.650457	2643.759727
1431.074999	-73.871978	-1131.883740	935.896814	-267.319739	2494.111538	2640.744448
1434.059000	-73.871978	-1131.407619	941.292405	-241.611347	2492.683172	2639.475107
1437.062999	-73.871978	-1131.883740	937.959850	-222.726777	2490.937471	2637.412071
1440.075000	-73.871978	-1131.407619	932.881653	-262.717634	2488.398552	2828.320742
1443.011000	-73.871978	-1131.883740	937.959850	-236.215755	2791.344881	2813.403368
1446.012000	-73.713280	-1131.407619	876.545310	-261.606753	2777.697325	2806.579590
1449.060000	-73.713280	-1131.883740	936.055481	-168.929577	2771.190882	2803.246975
1452.077000	-73.871978	-1131.724954	933.357716	-154.329747	2763.256073	2798.644781
1455.019000	-73.713280	-1131.883740	930.818617	-184.005484	2758.495331	2795.470953
1458.067999	-73.871978	-1131.724954	929.866433	-179.403365	2754.210711	2792.455912
1461.055999	-73.871978	-1131.407619	923.518717	-189.877152	2748.338938	2788.488388
1464.012000	-73.871978	-1131.248951	939.388096	-200.985730	2744.530201	2786.266804
1467.020000	-73.871978	-1131.407619	927.803457	-169.405654	2739.452124	2782.299519
1470.012000	-73.871978	-1131.724954	929.231703	-185.909808	2736.119509	2780.553818
1473.010000	-73.871978	-1131.407619	934.468567	-192.098871	2731.517315	2778.173447
1476.070000	-73.871978	-1131.407619	923.201323	-188.607603	2728.184938	2775.793076
1479.063000	-73.871978	-1132.042408	923.042595	-185.275033	2724.058867	2773.571253
1482.017999	-73.871978	-1132.359743	935.103357	-170.516506	2721.202374	2770.238638
1485.065999	-73.871978	-1132.042408	935.420752	-188.290223	2718.345881	2768.175602
1488.083000	-73.871978	-1132.042408	934.309900	-189.401075	2714.378595	2765.160561
1491.042000	-73.871978	-1131.724954	941.133738	-186.544582	2711.839437	2763.097525
1494.058000	-73.871978	-1132.201076	937.325060	-179.403365	2707.871914	2760.558367
1497.021000	-73.871978	-1132.677197	942.085862	-186.861977	2705.332994	2758.971453
1500.022000	-73.871978	-1132.677197	939.070702	-181.466386	2701.841593	2757.225752
1503.067000	-73.871978	-1132.835865	943.514109	-176.070794	2699.143887	2754.528046
1506.063000	-73.871978	-1132.677197	941.292405	-172.579527	2696.763515	2753.417253
1509.074999	-73.871978	-1132.835865	944.466293	-177.499041	2693.272114	2751.354218
1512.050000	-73.871978	-1132.359743	944.466293	-172.420844	2691.050529	2749.925852
1515.064000	-73.871978	-1132.994533	938.911974	-150.838479	2687.717915	2747.386694
1518.043000	-73.871978	-1132.042408	943.038046	-176.546872	2685.654879	2745.958567
1521.014999	-73.871978	-1133.153200	938.435912	-171.468675	2682.004929	2743.578196
1524.084000	-73.871978	-1132.359743	943.196714	-178.927287	2679.941893	2741.039038
1527.043000	-73.871978	-1132.994533	942.085862	-190.988019	2677.720308	2739.452124
